TimeStamp,Delta_TP9,Delta_AF7,Delta_AF8,Delta_TP10,Theta_TP9,Theta_AF7,Theta_AF8,Theta_TP10,Alpha_TP9,Alpha_AF7,Alpha_AF8,Alpha_TP10,Beta_TP9,Beta_AF7,Beta_AF8,Beta_TP10,Gamma_TP9,Gamma_AF7,Gamma_AF8,Gamma_TP10,RAW_TP9,RAW_AF7,RAW_AF8,RAW_TP10,AUX_RIGHT,Accelerometer_X,Accelerometer_Y,Accelerometer_Z,Gyro_X,Gyro_Y,Gyro_Z,HeadBandOn,HSI_TP9,HSI_AF7,HSI_AF8,HSI_TP10,Battery,Elements
2017-07-25 13:53:07.605,,,,,,,,,,,,,,,,,,,,,,,,,,,,,,,,,,,,,,/muse/elements/blink
2017-07-25 13:53:08.039,0.8263607346319913,0.9709070888675932,0.2697500283186126,1.003482349488863,0.4173874799792175,0.4324600973742821,-0.1602162044817031,0.3105708945161665,1.191548265801937,0.2669521341536814,0.07220486765927558,0.5398967276508649,1.104570107132174,0.3153340398138039,0.3005258905671823,0.6866329999343543,0.9357232182657045,0.1112750622469182,0.1138201665502849,0.4366192121874314,982.3443223443223,788.5347985347986,779.2673992673992,950.5128205128206,786.9230769230769,0.365356,0.302002,0.896851,-4.112244,14.265747,14.669495,1,1,1,1,1,82.703125
2017-07-25 13:53:08.249,,,,,,,,,,,,,,,,,,,,,,,,,,,,,,,,,,,,,,/muse/elements/blink
2017-07-25 13:53:08.861,,,,,,,,,,,,,,,,,,,,,,,,,,,,,,,,,,,,,,/muse/elements/blink
2017-07-25 13:53:09.042,0.8263607346319913,1.407722252617812,0.7458878981821213,1.003482349488863,0.4173874799792175,0.5277123337396584,0.03167802702689441,0.3105708945161665,1.191548265801937,0.5058675028019088,-0.0435666492796133,0.5398967276508649,1.104570107132174,0.2749825608567716,0.3563356597255141,0.6866329999343543,0.9357232182657045,0.01427865701817793,0.1949215402096659,0.4366192121874314,1011.758241758242,770.8058608058608,752.2710622710623,904.5787545787546,747.4358974358975,0.307129,0.267517,0.927917,-1.353302,-3.401947,1.667328,1,1,1,1,1,82.703125
2017-07-25 13:53:10.034,0.8263607346319913,1.444714629753433,1.141311408883807,1.003482349488863,0.4173874799792175,0.5226305494551844,0.2936704783534458,0.3105708945161665,1.191548265801937,0.6458809616342001,0.1402257770429307,0.5398967276508649,1.104570107132174,0.2006128294606099,0.3568490072706162,0.6866329999343543,0.9357232182657045,-0.09430456936626051,0.007853318002778352,0.4366192121874314,998.4615384615385,794.981684981685,777.2527472527473,914.2490842490843,744.6153846153846,0.326599,0.266724,0.912659,-2.938385,2.826233,3.656158,1,2,1,1,2,82.703125
2017-07-25 13:53:11.028,0.5534440129818525,0.3177911338169299,0.4906845541031171,0.3570520025833336,0.369417519515591,-0.4358834763786048,-0.1846704676729451,-0.07555905659625266,1.321821912153421,-0.06811892734872005,0.03702692911874053,0.6057162279756694,1.047903563751424,0.06205078087519336,0.2879275809845359,0.488801596033858,0.4902681045542563,-0.11970006835663,0.2088800701242805,0.3029988978609159,973.0769230769231,800.6227106227107,783.2967032967033,904.981684981685,763.956043956044,0.337524,0.260803,0.917603,-3.760834,4.269257,4.299164,1,1,1,1,1,82.703125
2017-07-25 13:53:11.773,,,,,,,,,,,,,,,,,,,,,,,,,,,,,,,,,,,,,,/muse/elements/blink
2017-07-25 13:53:11.976,,,,,,,,,,,,,,,,,,,,,,,,,,,,,,,,,,,,,,/muse/elements/blink
2017-07-25 13:53:12.024,0.652990593273663,0.6577410195089369,0.1679984650829154,0.3446321596167157,0.4923767172275886,0.1069997183141966,-0.2855470143906952,0.05045926197377475,1.273260235020763,0.4020855341830925,-0.0076408172523822,0.6524215291707657,1.029345125903826,0.1548867280422922,0.2094938757393051,0.4097050006156183,0.6782466481296568,0.02389948451420245,0.2144960351933051,0.2972431539879044,948.901098901099,772.014652014652,760.7326007326008,903.3699633699634,783.6996336996338,0.273499,0.131042,0.992981,-15.140533,17.226562,8.725433,1,1,1,1,1,82.703125
2017-07-25 13:53:12.300,,,,,,,,,,,,,,,,,,,,,,,,,,,,,,,,,,,,,,/muse/elements/blink
2017-07-25 13:53:12.889,,,,,,,,,,,,,,,,,,,,,,,,,,,,,,,,,,,,,,/muse/elements/blink
2017-07-25 13:53:13.021,0.6827549346356175,0.9987717015912554,0.05265938429550509,0.3942261609607332,0.4327581686043177,0.624092360656391,-0.2707252559630762,0.2150732099542447,1.115474419088292,0.4788537547142573,-0.09798541310890299,0.4783879292664892,0.9521711083213158,0.2568380456349348,0.1478773732997811,0.3608696747390597,0.9277766115389227,0.1647263771621373,0.01844221393765736,0.2383478309395397,1036.739926739927,791.3553113553114,770.4029304029305,904.981684981685,818.3516483516484,-0.115295,0.177979,1.035522,21.548157,24.449158,12.045135,1,1,1,1,1,82.703125
2017-07-25 13:53:13.371,,,,,,,,,,,,,,,,,,,,,,,,,,,,,,,,,,,,,,/muse/elements/blink
2017-07-25 13:53:13.915,,,,,,,,,,,,,,,,,,,,,,,,,,,,,,,,,,,,,,/muse/elements/blink
2017-07-25 13:53:14.044,0.6827549346356175,1.111459251948678,0.05265938429550509,0.3942261609607332,0.4327581686043177,0.7696149432918401,-0.2707252559630762,0.2150732099542447,1.115474419088292,0.4788537547142573,-0.09798541310890299,0.4783879292664892,0.9521711083213158,0.3036473983494793,0.1478773732997811,0.3608696747390597,0.9277766115389227,0.2574846007854924,0.01844221393765736,0.2383478309395397,1079.85347985348,831.2454212454213,767.5824175824176,945.2747252747253,830.0366300366301,-0.130249,0.154602,0.957153,-10.774078,9.181519,24.307098,1,1,1,1,1,82.703125
2017-07-25 13:53:14.624,,,,,,,,,,,,,,,,,,,,,,,,,,,,,,,,,,,,,,/muse/elements/blink
2017-07-25 13:53:14.830,,,,,,,,,,,,,,,,,,,,,,,,,,,,,,,,,,,,,,/muse/elements/blink
2017-07-25 13:53:15.053,0.6827549346356175,1.111459251948678,0.05265938429550509,0.3942261609607332,0.4327581686043177,0.7696149432918401,-0.2707252559630762,0.2150732099542447,1.115474419088292,0.4788537547142573,-0.09798541310890299,0.4783879292664892,0.9521711083213158,0.3036473983494793,0.1478773732997811,0.3608696747390597,0.9277766115389227,0.2574846007854924,0.01844221393765736,0.2383478309395397,891.2820512820513,790.1465201465202,792.967032967033,806.6666666666667,824.3956043956044,0.463440,0.120911,0.937622,-9.585266,-15.462036,5.779572,1,2,1,4,2,82.625000
2017-07-25 13:53:15.419,,,,,,,,,,,,,,,,,,,,,,,,,,,,,,,,,,,,,,/muse/elements/blink
2017-07-25 13:53:15.419,,,,,,,,,,,,,,,,,,,,,,,,,,,,,,,,,,,,,,/muse/elements/jaw_clench
2017-07-25 13:53:15.828,,,,,,,,,,,,,,,,,,,,,,,,,,,,,,,,,,,,,,/muse/elements/blink
2017-07-25 13:53:16.047,0.6827549346356175,1.111459251948678,0.05265938429550509,0.3942261609607332,0.4327581686043177,0.7696149432918401,-0.2707252559630762,0.2150732099542447,1.115474419088292,0.4788537547142573,-0.09798541310890299,0.4783879292664892,0.9521711083213158,0.3036473983494793,0.1478773732997811,0.3608696747390597,0.9277766115389227,0.2574846007854924,0.01844221393765736,0.2383478309395397,875.1648351648352,718.8278388278388,757.5091575091575,842.5274725274726,823.5897435897436,0.332581,0.169861,0.897400,-4.142151,16.441498,3.775787,1,2,1,2,2,82.625000
2017-07-25 13:53:16.232,,,,,,,,,,,,,,,,,,,,,,,,,,,,,,,,,,,,,,/muse/elements/blink
2017-07-25 13:53:17.045,0.6827549346356175,1.111459251948678,0.05265938429550509,0.3942261609607332,0.4327581686043177,0.7696149432918401,-0.2707252559630762,0.2150732099542447,1.115474419088292,0.4788537547142573,-0.09798541310890299,0.4783879292664892,0.9521711083213158,0.3036473983494793,0.1478773732997811,0.3608696747390597,0.9277766115389227,0.2574846007854924,0.01844221393765736,0.2383478309395397,859.047619047619,729.3040293040293,693.8461538461538,769.1941391941392,835.2747252747253,0.526001,0.184021,0.884460,-1.816864,-12.112427,-4.523468,1,2,1,1,2,82.625000
2017-07-25 13:53:17.259,,,,,,,,,,,,,,,,,,,,,,,,,,,,,,,,,,,,,,/muse/elements/blink
2017-07-25 13:53:18.022,0.6827549346356175,1.111459251948678,0.05265938429550509,0.3942261609607332,0.4327581686043177,0.7696149432918401,-0.2707252559630762,0.2150732099542447,1.115474419088292,0.4788537547142573,-0.09798541310890299,0.4783879292664892,0.9521711083213158,0.3036473983494793,0.1478773732997811,0.3608696747390597,0.9277766115389227,0.2574846007854924,0.01844221393765736,0.2383478309395397,1205.567765567765,757.1062271062272,737.3626373626374,1174.945054945055,746.6300366300367,0.368958,0.170471,0.930420,-5.278625,46.617889,-8.037567,1,2,1,1,2,82.625000
2017-07-25 13:53:18.156,,,,,,,,,,,,,,,,,,,,,,,,,,,,,,,,,,,,,,/muse/elements/blink
2017-07-25 13:53:18.390,,,,,,,,,,,,,,,,,,,,,,,,,,,,,,,,,,,,,,/muse/elements/blink
2017-07-25 13:53:19.022,0.6827549346356175,1.111459251948678,0.05265938429550509,0.3942261609607332,0.4327581686043177,0.7696149432918401,-0.2707252559630762,0.2150732099542447,1.115474419088292,0.4788537547142573,-0.09798541310890299,0.4783879292664892,0.9521711083213158,0.3036473983494793,0.1478773732997811,0.3608696747390597,0.9277766115389227,0.2574846007854924,0.01844221393765736,0.2383478309395397,743.0036630036631,794.1758241758242,792.5641025641025,861.4652014652015,823.1868131868132,0.214355,0.277222,0.987732,3.297272,-4.112244,-5.517883,1,2,1,1,2,82.625000
2017-07-25 13:53:20.046,0.6827549346356175,1.414270145734742,1.199770758877741,1.130281450201847,0.4327581686043177,0.5244668053703749,0.5734418626964729,0.7495605658675953,1.115474419088292,0.8437294079344708,0.7023165487182712,0.7054338438488417,0.9521711083213158,0.6722475199755986,0.3506304562688158,0.7630954972735281,0.9277766115389227,0.1240631154431817,-0.003558986434847868,0.3409634873105593,938.021978021978,804.2490842490843,782.0879120879121,846.1538461538462,833.6630036630037,0.270386,0.059509,0.940125,-7.947845,0.545807,6.519775,1,1,1,1,1,82.625000
2017-07-25 13:53:21.028,0.6827549346356175,0.6533330438869607,0.4049595425367118,1.029342518823031,0.4327581686043177,0.4393995738760562,0.1268306820253664,0.7429524098973374,1.115474419088292,0.5525797277747365,0.2672646784139784,0.8665575202434008,0.9521711083213158,0.09406537549039139,0.1235817352015058,0.7719062113812878,0.9277766115389227,-0.3123653222504106,-0.1817571857297604,0.1973348602776171,865.4945054945056,749.8534798534798,813.5164835164835,822.7838827838829,788.1318681318681,0.195862,0.056335,0.973328,-1.525269,38.475647,45.541229,1,1,1,1,1,82.625000
2017-07-25 13:53:21.117,,,,,,,,,,,,,,,,,,,,,,,,,,,,,,,,,,,,,,/muse/elements/blink
2017-07-25 13:53:22.022,0.6827549346356175,1.417563729843649,0.5205124315945835,1.075387898459642,0.4327581686043177,0.6897383590883789,-0.07694656479006591,0.8919223484857475,1.115474419088292,0.4525509883451765,-0.1563196479207676,0.6868967078349779,0.9521711083213158,0.02472038306153363,0.131237006975233,0.8122586855634114,0.9277766115389227,-0.2457622411740067,-0.2738778415465261,-0.03542410462317856,911.8315018315019,787.7289377289378,800.2197802197802,852.6007326007326,828.021978021978,0.027100,0.145752,0.989014,-2.056122,4.299164,5.495453,1,1,1,1,1,82.625000
2017-07-25 13:53:22.749,,,,,,,,,,,,,,,,,,,,,,,,,,,,,,,,,,,,,,/muse/elements/blink
2017-07-25 13:53:23.058,0.6827549346356175,1.144930575094025,1.238808536776704,1.13817789900553,0.4327581686043177,0.5319552467254699,1.122061210056458,0.9607889380283318,1.115474419088292,0.4996013789172737,1.278739087697648,0.6838192808976686,0.9521711083213158,0.08038897965446846,0.2305863625591328,0.8390849442023398,0.9277766115389227,-0.3155501027897696,-0.142024092747948,-0.07622407342506157,919.4871794871796,790.5494505494506,802.6373626373627,859.8534798534798,847.3626373626374,-0.041443,0.099792,0.994324,-3.835602,4.403839,10.295563,1,1,1,1,1,82.625000
2017-07-25 13:53:24.026,0.6827549346356175,0.9260474955652203,1.351338755033136,1.13817789900553,0.4327581686043177,0.5665918665743552,1.185684706788366,0.9607889380283318,1.115474419088292,0.487494935111086,1.278739087697648,0.6838192808976686,0.9521711083213158,0.01847002444685518,0.2136829745273,0.8390849442023398,0.9277766115389227,-0.4559756924448124,-0.1836155741372928,-0.07622407342506157,1037.545787545788,801.025641025641,811.9047619047619,827.2161172161173,827.2161172161173,0.179016,0.099976,0.971863,0.964508,5.682373,11.155396,1,2,1,1,2,82.625000
2017-07-25 13:53:24.531,,,,,,,,,,,,,,,,,,,,,,,,,,,,,,,,,,,,,,/muse/elements/blink
2017-07-25 13:53:25.037,2.520545430627024,1.015518585832616,1.266728662471589,1.13817789900553,1.097241166657545,0.6241263731105556,0.9031218240392727,0.9607889380283318,0.8354722592003049,0.5712599271363217,0.679346487932156,0.6838192808976686,0.627779045769541,-0.03799014209171774,0.09349062473524158,0.8390849442023398,0.3875037380851624,-0.229255755321509,-0.1484784724413752,-0.07622407342506157,884.4322344322345,814.7252747252747,809.0842490842491,870.3296703296703,890.0732600732601,-0.030457,0.094055,0.997314,-1.570129,3.215027,4.299164,1,1,1,1,1,82.515625
2017-07-25 13:53:25.911,,,,,,,,,,,,,,,,,,,,,,,,,,,,,,,,,,,,,,/muse/elements/blink
2017-07-25 13:53:26.025,2.520545430627024,0.8012669453589714,1.17767786774039,1.13817789900553,1.097241166657545,0.6127118044197065,0.874514412288949,0.9607889380283318,0.8354722592003049,0.5609255333758778,0.5956200968083848,0.6838192808976686,0.627779045769541,0.03247835020127043,0.07111514312846212,0.8390849442023398,0.3875037380851624,-0.3140903610041784,-0.1219760365186206,-0.07622407342506157,871.1355311355312,812.3076923076924,800.2197802197802,848.974358974359,813.919413919414,0.015930,0.107605,0.997009,-3.603821,1.218719,-8.351593,1,1,1,1,1,82.515625
2017-07-25 13:53:26.507,,,,,,,,,,,,,,,,,,,,,,,,,,,,,,,,,,,,,,/muse/elements/blink
2017-07-25 13:53:27.055,2.520545430627024,1.091349439765805,1.116754740955504,1.13817789900553,1.097241166657545,0.7995975033759546,0.5958063085256846,0.9607889380283318,0.8354722592003049,0.5458083159680726,0.5455277368222035,0.6838192808976686,0.627779045769541,0.07251578350213668,0.05725754358521611,0.8390849442023398,0.3875037380851624,-0.351291513605118,-0.3594962523568688,-0.07622407342506157,832.4542124542124,811.9047619047619,799.0109890109891,842.9304029304029,859.8534798534798,0.094421,0.133301,0.994141,1.435547,-9.151611,-11.790924,1,2,1,1,2,82.515625
2017-07-25 13:53:28.050,2.520545430627024,1.263186223838646,1.175811436988435,1.434084393346248,1.097241166657545,0.7141181314081975,0.6581851076311305,0.9216685170290533,0.8354722592003049,0.5458083159680726,0.5603286059777893,0.9794958642110215,0.627779045769541,-0.1346425739247479,0.001733934255867348,0.7632266673113342,0.3875037380851624,-0.3108812079715073,-0.3868239954668271,0.1781134542600962,904.981684981685,837.2893772893773,796.1904761904763,891.2820512820513,903.3699633699634,0.129272,0.153809,0.994812,-2.033691,-0.224304,-9.495544,1,1,1,1,1,82.515625
2017-07-25 13:53:28.767,,,,,,,,,,,,,,,,,,,,,,,,,,,,,,,,,,,,,,/muse/elements/blink
2017-07-25 13:53:29.038,,,,,,,,,,,,,,,,,,,,,,,,,,,,,,,,,,,,,,/muse/elements/blink
2017-07-25 13:53:29.061,2.520545430627024,1.227940036255015,0.9933904564520566,1.455627539392253,1.097241166657545,0.6086886327378189,0.4088952627349566,0.9122768957773635,0.8354722592003049,0.3179383450812164,-0.03040681911178754,0.6572757286466421,0.627779045769541,-0.07081462966200068,-0.2323693167696824,0.4286322907595291,0.3875037380851624,-0.4526115886088672,-0.4291272228748969,0.0629877022396443,1012.967032967033,819.5604395604396,787.3260073260074,961.7948717948718,821.978021978022,0.089417,0.151062,0.994934,-1.996307,5.854340,4.276733,1,1,1,1,1,82.515625
2017-07-25 13:53:30.036,2.520545430627024,1.461581404710589,1.017996576635543,1.760460310619742,1.097241166657545,0.8226705152032008,0.4632121730007187,1.252156230980412,0.8354722592003049,0.7149745707930275,-0.07998500898037972,0.652080428859078,0.627779045769541,0.000997818232873947,-0.1724293677701121,0.4184722117806154,0.3875037380851624,-0.1819409104701531,-0.4368897116217962,0.2089795704542022,855.4212454212454,818.7545787545788,804.6520146520147,871.1355311355312,837.6923076923077,-0.112915,0.105408,1.015564,-7.790833,14.826508,-0.598145,1,1,1,1,1,82.515625
2017-07-25 13:53:30.076,,,,,,,,,,,,,,,,,,,,,,,,,,,,,,,,,,,,,,/muse/elements/blink
2017-07-25 13:53:31.022,2.520545430627024,1.120423705787712,0.9643341305460625,1.720027599550826,1.097241166657545,0.6514819595904484,0.3927718133873404,1.154635806784622,0.8354722592003049,0.6021734957459189,0.4250452064150037,1.172435300103229,0.627779045769541,-0.1183559993002945,0.0425189864387283,0.8207072158636096,0.3875037380851624,-0.380306936114893,-0.3078626932197067,0.2115951116418693,906.996336996337,821.1721611721612,812.3076923076924,884.4322344322345,862.2710622710623,0.044800,0.123169,0.987183,-2.175751,1.420593,3.828125,1,1,1,1,1,82.515625
2017-07-25 13:53:31.788,,,,,,,,,,,,,,,,,,,,,,,,,,,,,,,,,,,,,,/muse/elements/blink
2017-07-25 13:53:32.039,2.520545430627024,1.139698302767058,1.052205259617278,1.476704671527054,1.097241166657545,0.6217958396339608,0.5078161183557871,0.7355860772655081,0.8354722592003049,0.3317932868250222,0.5774874687614804,1.225866149845812,0.627779045769541,-0.1509236387732069,0.0496809770875402,0.8945946924354015,0.3875037380851624,-0.4218680999703776,-0.4269936174658027,0.2912872396051759,720.4395604395604,809.0842490842491,821.5750915750916,730.5128205128206,882.4175824175825,0.022522,0.159668,0.988892,-4.029999,6.594543,-0.074768,1,1,1,1,1,82.515625
2017-07-25 13:53:32.256,,,,,,,,,,,,,,,,,,,,,,,,,,,,,,,,,,,,,,/muse/elements/blink
2017-07-25 13:53:32.876,,,,,,,,,,,,,,,,,,,,,,,,,,,,,,,,,,,,,,/muse/elements/blink
2017-07-25 13:53:33.028,2.520545430627024,0.6425471013137292,0.7161761266052824,1.401544112162795,1.097241166657545,0.2537591026094253,0.3280519460900101,0.5445433479507416,0.8354722592003049,0.3143982638732019,0.4647038823144096,1.204347190917332,0.627779045769541,-0.1360948217421032,-0.006156404254108485,0.9473051156768865,0.3875037380851624,-0.4829653547374999,-0.4144459458209249,0.4399814054480221,839.3040293040293,833.2600732600733,795.7875457875458,782.893772893773,830.0366300366301,0.022583,0.155457,0.997131,-2.392578,3.910370,3.603821,1,1,1,1,1,82.515625
2017-07-25 13:53:33.204,,,,,,,,,,,,,,,,,,,,,,,,,,,,,,,,,,,,,,/muse/elements/blink
2017-07-25 13:53:34.037,2.520545430627024,0.9250835469787171,0.468436476197609,1.401544112162795,1.097241166657545,0.5275150249032052,0.444063357812019,0.5445433479507416,0.8354722592003049,0.4935806194499349,0.3701973175817307,1.204347190917332,0.627779045769541,-0.2147460142431616,0.1103266727743401,0.9473051156768865,0.3875037380851624,-0.5899206228476475,-0.4162168264121813,0.4399814054480221,901.7582417582418,816.3369963369963,809.0842490842491,875.5677655677656,860.2564102564103,-0.069031,0.137878,0.988037,-4.620667,1.308441,-0.717773,1,1,1,1,1,82.515625
2017-07-25 13:53:34.970,,,,,,,,,,,,,,,,,,,,,,,,,,,,,,,,,,,,,,/muse/elements/blink
2017-07-25 13:53:35.033,1.023844529275796,0.3444813037856528,0.06152944285141367,1.13492223694521,0.542290407361426,0.0741803482198479,-0.01023631505356227,0.1696803327908803,1.252155683833982,0.2651515698115681,0.09733564636843108,0.5743740508819893,1.182130809668468,-0.2699963151313838,-0.08586892924383133,0.4050747059427871,0.7289797211361428,-0.513738320769687,-0.5536063881605527,-0.003837875179545025,885.6410256410256,823.992673992674,799.8168498168499,836.4835164835165,844.9450549450549,0.028625,0.174377,0.978882,-5.345917,5.846863,5.772095,1,1,1,1,1,82.437500
2017-07-25 13:53:36.022,0.9052470540117192,0.3512030493742569,0.08077403111111595,1.078631971057283,0.4381148885827919,-0.04297185531390415,-0.2770486802068053,0.3184214590080304,1.088914366569103,0.07188183283913877,-0.09511241630098219,0.4556430925168881,1.033604718979011,-0.1899949180496071,-0.2159685879643916,0.1965390187543656,0.5910447387639467,-0.5663669958780034,-0.5865278845233745,-0.04448748649236098,906.5934065934066,822.7838827838829,801.8315018315019,842.5274725274726,775.2380952380953,-0.030823,0.063171,0.981323,-6.482391,5.158997,0.029907,1,1,1,1,1,82.437500
2017-07-25 13:53:36.894,,,,,,,,,,,,,,,,,,,,,,,,,,,,,,,,,,,,,,/muse/elements/blink
2017-07-25 13:53:37.039,0.8483674172645339,0.113454995459406,0.3203456758300514,1.173481426316842,0.5441673087839747,-0.1559474324570057,-0.5290472942618201,0.3814073852345191,1.294769369916929,0.06697994793115827,0.1204453825225377,0.7202982188974154,1.075432727395071,-0.1954129249318606,-0.1724948535799309,0.2300196906537071,0.6724988918153296,-0.5814904977042895,-0.4355900247211167,-0.1747785663534775,867.5091575091575,820.3663003663004,805.4578754578755,836.4835164835165,901.7582417582418,0.011841,0.209473,1.028625,-2.684174,-0.545807,1.869202,1,1,1,1,1,82.437500
2017-07-25 13:53:37.392,,,,,,,,,,,,,,,,,,,,,,,,,,,,,,,,,,,,,,/muse/elements/blink
2017-07-25 13:53:38.035,0.7393000645201523,0.6398403280347362,0.9398625169721155,1.174687178700104,0.635693123437747,0.3895918665121483,0.7889363328930006,0.2865484214803844,1.294301462327786,0.4137493039352999,0.7042773010115607,0.6874562087726579,1.215111602216416,-0.1707867913475633,-0.01562581095351751,0.2858813236450246,0.7660594703079904,-0.4257321747633689,-0.4019597129082996,-0.06661787080009679,931.5750915750916,822.3809523809524,802.2344322344322,896.1172161172161,850.989010989011,0.049255,0.148254,0.986694,-9.719849,10.205841,0.186920,1,1,1,1,1,82.437500
2017-07-25 13:53:38.102,,,,,,,,,,,,,,,,,,,,,,,,,,,,,,,,,,,,,,/muse/elements/blink
2017-07-25 13:53:39.043,0.7393000645201523,0.6871005699267226,1.007801108792052,1.174687178700104,0.635693123437747,0.62022310728756,0.9095299940881276,0.2865484214803844,1.294301462327786,0.5988929722486629,0.8245609655627273,0.6874562087726579,1.215111602216416,-0.2435256036821654,0.06048244566214602,0.2858813236450246,0.7660594703079904,-0.333558633565985,-0.3883987046838769,-0.06661787080009679,858.2417582417582,815.934065934066,807.0695970695971,846.5567765567765,813.919413919414,-0.110291,0.115051,1.035339,4.306641,4.463654,15.970459,1,1,1,1,1,82.437500
2017-07-25 13:53:40.046,1.566862364692942,1.239946823380474,1.085387535525383,0.8440472771764599,1.12192701071274,0.6689324173267763,0.5475432312898734,0.740792224677349,1.248539292682186,0.453233242367631,0.3722551958734634,0.8529491441152085,0.9991092339871201,-0.09953252316021834,-0.181353417808711,0.70432870987865,0.4721638833609936,-0.5864222459982774,-0.6243041565667937,0.3713849552012814,876.7765567765568,820.3663003663004,804.2490842490843,845.3479853479854,907.8021978021978,0.025391,0.148560,1.003784,-2.714081,1.697235,7.005768,1,1,1,1,1,82.437500
2017-07-25 13:53:41.022,1.179028138063439,0.9173193487060984,0.8504088965225104,0.6264742206105847,0.7343466770404242,0.3228114349389426,0.3297728406400605,0.316668440489551,1.146105819925018,0.3287115451231666,-0.02178273560321806,0.5882886728275315,0.7667415099620232,-0.08059866490141816,-0.1712932903551564,0.5651805203749078,0.4305364568417286,-0.4833207059378755,-0.5452506034993767,0.2047623890799926,873.5531135531136,817.948717948718,797.3992673992674,833.6630036630037,850.1831501831502,0.039185,0.146484,0.999939,-0.747681,1.884155,4.874878,1,1,1,1,1,82.437500
2017-07-25 13:53:41.666,,,,,,,,,,,,,,,,,,,,,,,,,,,,,,,,,,,,,,/muse/elements/blink
2017-07-25 13:53:42.066,0.1401842835862526,1.069794242442349,1.402430368140552,0.2094299965701357,0.2176707845932906,0.736328530122859,1.08318985345897,-0.1116638035415197,0.5503906564761643,0.4125476259748097,0.8850618161958528,0.3543610792900386,0.3605136422337972,-0.1248319989954937,0.04351749771329955,0.3289774593402603,0.2284016121620862,-0.4070202691619534,-0.3393454786390719,-0.1399483261780338,871.941391941392,817.5457875457876,807.4725274725275,848.974358974359,842.1245421245421,-0.011108,0.107483,0.996338,-1.263580,3.409424,5.435638,1,1,1,1,1,82.437500
2017-07-25 13:53:43.022,0.3377370785439296,1.235557484979734,1.529959906152632,0.2614810393450092,0.4146304225543175,0.8171163647859567,1.174805639324969,0.04885389709596576,0.3608923303402761,0.4270883705036424,0.8858640681094375,0.7431395851406303,0.3914626496032546,-0.0213676232265443,0.1350912284767647,0.1348268005636365,0.00809023577308254,-0.5295671206761984,-0.4036863362535336,-0.1211906092267598,902.967032967033,847.7655677655678,780.8791208791209,836.0805860805862,840.1098901098901,0.016296,0.126831,0.998718,-1.585083,1.256104,3.461761,1,1,1,1,1,82.437500
2017-07-25 13:53:44.040,0.9977549631006224,1.008410668059858,0.6630485759951339,0.8453903651088568,0.4681670728367155,0.1765594151693208,0.1535846352666506,0.6855011741140379,0.6312925933994801,0.2231571262731127,0.1783645760295758,0.9688908156908141,0.3839914546430566,-0.1231708376337043,-0.2947003456696181,0.3475085267891472,-0.04062906474553168,-0.4894266798121664,-0.6724806277586609,-0.0316967889204237,880.8058608058608,831.6483516483516,806.2637362637363,838.901098901099,820.3663003663004,0.022522,0.130615,1.000244,-2.100983,3.386993,3.932800,1,1,1,1,1,82.437500
2017-07-25 13:53:45.040,0.5995131788094493,0.7122948748281714,0.4589656036234502,0.1766992483841153,0.3338689672631355,-0.0982523176366593,-0.048877266263762,0.430847000009431,0.6370894521827296,0.1501747608542814,0.1123123154583841,0.673147752055595,0.3068606759336457,-0.2000968575596572,-0.2170558818028643,0.3075598602675647,-0.07410673514120429,-0.3373930058066771,-0.5225368984221348,-0.03366265586071899,874.7619047619048,819.1575091575091,805.4578754578755,840.9157509157509,863.0769230769231,0.023621,0.129517,0.994263,-2.467346,3.723450,3.611298,1,1,1,1,1,82.312500
2017-07-25 13:53:45.833,,,,,,,,,,,,,,,,,,,,,,,,,,,,,,,,,,,,,,/muse/elements/blink
2017-07-25 13:53:46.028,0.2303344488984082,0.6306502251164394,0.4316210328386216,0.8134077678153657,0.4750331163159942,0.1093573561996577,0.07794413561105097,0.7056114253784784,0.6254584080190559,0.2464215687145707,0.03888590296071625,0.8754496205344132,0.2645505952731428,-0.4025527025674818,-0.145672052407828,0.2333026487984729,-0.05845470486354189,-0.3633974426061187,-0.3771417695182833,0.01348507621675765,871.941391941392,836.8864468864469,798.2051282051282,829.6336996336996,853.8095238095239,0.014221,0.128845,0.996399,-3.058014,3.259888,4.336548,1,1,1,1,1,82.312500
2017-07-25 13:53:47.037,1.08618418707457,1.231456937119457,0.9370321531234356,1.495455725086513,0.9210659988325554,0.6308105498649158,0.4533093379244669,1.215442799064111,0.7400274966944602,0.4598631332980478,0.2676774648250999,1.247038476370524,0.6471394299287281,-0.07285953226242224,-0.0768636210628546,0.5342129353602489,0.2842968047247388,-0.2557424211707024,-0.2070156368761559,0.3517817440200081,875.1648351648352,822.3809523809524,800.6227106227107,839.3040293040293,870.3296703296703,0.055908,0.209045,1.006348,9.547882,-11.671295,8.785248,1,1,1,1,1,82.312500
2017-07-25 13:53:47.658,,,,,,,,,,,,,,,,,,,,,,,,,,,,,,,,,,,,,,/muse/elements/blink
2017-07-25 13:53:48.068,1.202568756817312,1.179594824018845,1.019322380156223,1.767958002111551,1.136503664550917,0.6805730322701208,0.5793426294271429,1.391771350882314,0.7502862811281298,0.5591550873535369,0.3896467881300668,1.232337006289999,0.6745140258977381,-0.189508474990918,-0.1441595035609267,0.626723157650712,0.3908263501294416,-0.2680377556560245,-0.2235888171576015,0.4806006992002326,878.7912087912089,825.6043956043957,805.4578754578755,833.6630036630037,867.9120879120879,0.094727,0.138916,0.998352,-3.656158,0.852356,6.302948,1,1,1,1,1,82.312500
2017-07-25 13:53:48.374,,,,,,,,,,,,,,,,,,,,,,,,,,,,,,,,,,,,,,/muse/elements/blink
2017-07-25 13:53:49.021,1.168324379725381,0.8794910581177982,1.364400053801372,1.807693586396009,1.173118464247351,0.5474941858316517,1.171505531878787,1.48737497970732,0.6038718867742106,0.5469018537732571,1.111800740526118,1.229724159428323,0.4464813902094386,-0.2063655701273166,0.2636852631780447,0.5804867306890568,0.2996206123938439,-0.3015519734365915,-0.3046502007327574,0.3802481510510481,881.2087912087912,827.6190476190476,809.0842490842491,840.9157509157509,898.5347985347986,0.033508,0.119202,0.978455,-2.781372,5.712280,4.844971,1,1,1,1,1,82.312500
2017-07-25 13:53:50.022,1.13194521927788,0.9774755767403077,1.426979164358771,0.8831473950590619,0.4496046381339032,0.5342877608709482,1.162121408794492,0.8594883224617653,0.5536886952595932,0.3419978994139566,1.111800740526118,0.4600322302965708,0.3270351512528931,-0.1267259843683941,0.225374233203391,0.5727558702681218,0.08208470942201855,-0.3575647847372965,-0.3615646293513288,0.4102313269841525,875.1648351648352,818.7545787545788,803.8461538461539,838.0952380952381,859.4505494505495,0.035583,0.097107,0.991028,-2.048645,3.431854,0.598145,1,1,1,1,1,82.312500
2017-07-25 13:53:51.041,1.247045082539671,0.9709829597111348,0.9740376643751688,0.781878042668772,0.9750764411385697,0.6264943178532287,0.4919275798008957,0.7536358930768929,0.9201370089298184,0.4724999418880048,0.1715146143736423,0.8648437701265397,0.3222476874355722,-0.1752410257800501,-0.08439739179579889,0.4946657932573702,0.1276185718676784,-0.3767923267554779,-0.2641609607271249,0.2038985480643611,881.2087912087912,827.6190476190476,806.6666666666667,849.7802197802198,812.3076923076924,-0.068726,0.050537,0.990723,-4.044952,6.145935,5.495453,1,1,1,1,1,82.312500
2017-07-25 13:53:52.046,1.460556541113074,0.8553567513368053,0.6755641566591642,0.7550726402848492,1.016859896812163,0.4528503542023974,0.2039510256604806,0.5357959668124054,0.8891199704382776,0.3972713762575013,0.1189344044924874,1.070291968388263,0.4301005542264323,-0.3393079867185632,-0.1907632628433417,0.7867767237519425,0.1299925043501655,-0.4715063163746729,-0.3213754789609957,0.4458522499602943,881.2087912087912,823.992673992674,812.7106227106227,843.7362637362637,848.974358974359,0.005676,0.119751,0.995239,-2.444916,2.213135,0.029907,1,1,1,1,1,82.312500
2017-07-25 13:53:53.037,0.9170603446359032,0.9691105676104429,0.8278737847744152,0.7862202130686624,0.7477918442772025,0.4164996158956711,0.2772259823124325,0.6523124268565952,0.9630520725845833,0.1323013083521535,-0.1208818451432256,1.076708510802783,0.6861365043865902,-0.3993637409831101,-0.3536555995715381,0.7724802503559233,0.1989008954856915,-0.6973622630386415,-0.431926135975043,0.414405711464911,850.989010989011,819.96336996337,816.7399267399268,837.2893772893773,828.021978021978,0.006287,0.110168,0.995178,-6.661835,7.618866,2.048645,1,1,1,1,1,82.312500
2017-07-25 13:53:53.234,,,,,,,,,,,,,,,,,,,,,,,,,,,,,,,,,,,,,,/muse/elements/blink
2017-07-25 13:53:54.044,1.203950980279736,1.033893357343643,0.9857578512615897,0.8992973778789639,1.189262524503169,0.4847726630561759,0.388414358925578,0.8763734684104337,1.148812776465691,0.1969465330245024,0.05350164061671805,0.6414154634450543,0.880661503498177,-0.006972258273460654,-0.1972008099061061,0.4566619506684454,0.6853101247755576,-0.4217976455630602,-0.1151151591152816,0.2674749804028931,856.6300366300367,820.3663003663004,813.919413919414,842.9304029304029,875.9706959706959,0.072327,0.146179,0.989746,-1.824341,1.368256,1.734619,1,1,1,1,1,82.312500
2017-07-25 13:53:55.031,1.136558217036656,0.08148688347224042,0.5875998920142449,0.8953286749272453,1.153000236457747,-0.05524515853475867,0.1674744874766183,0.7601591736962796,1.195643931360048,0.240987914579536,0.02159731705755656,1.022021194128738,0.8783094571688159,0.02283621101750896,-0.08255942470622571,0.5766017056121926,0.7208020143625962,-0.4043942361692487,-0.1581017653401116,0.01300337017024314,878.7912087912089,829.2307692307693,814.7252747252747,842.5274725274726,878.3882783882784,0.090027,0.143250,0.993530,-2.325287,5.181427,4.755249,1,1,1,1,1,82.234375
2017-07-25 13:53:56.022,0.7572991950722462,-0.2086611019662927,-0.1815014430431201,0.8266864192100676,0.4808897134308623,-0.3931130749327972,-0.3409688718887886,0.2818414738339111,0.8321751903947329,0.123820975239507,-0.2698151133311893,0.8452957368356757,0.6021482733355568,-0.4109416729687779,-0.4336686123476177,0.3582309311065102,0.0309056734129651,-0.5991025959355162,-0.6363085005191124,-0.2247746984772294,876.7765567765568,826.8131868131868,813.5164835164835,839.3040293040293,839.3040293040293,0.067139,0.132568,0.997986,-2.011261,3.200073,3.551483,1,1,1,1,1,82.234375
2017-07-25 13:53:57.027,0.608807191989893,-0.3964988327772559,-0.3581811008009938,0.6076512569010186,0.3859254821065649,-0.5140352261429042,-0.7193665166912011,0.2743762167120164,0.818757313958164,-0.1752142236115956,-0.337931951155557,0.5742724038961816,0.5017564986655465,-0.3394171367157813,-0.3771965290281619,0.4025979871836861,-0.02547527218911618,-0.5649569636438891,-0.4794625889467993,-0.06659618072354163,883.2234432234433,829.6336996336996,811.5018315018315,844.9450549450549,818.7545787545788,0.068787,0.129272,0.998779,-2.699127,3.491669,5.121613,1,1,1,1,1,82.234375
2017-07-25 13:53:57.464,,,,,,,,,,,,,,,,,,,,,,,,,,,,,,,,,,,,,,/muse/elements/blink
2017-07-25 13:53:58.041,0.6271581146692753,0.966362767855353,1.127140866002355,0.01388045626930814,0.08636125063132269,0.3999736290218893,0.6945156697131173,0.1241675541379188,0.5305684525288203,0.2086986179303755,0.4856642814720313,0.2712868425662452,0.3184724610580688,-0.1642580961075323,-0.1790907972054135,0.4515033527435381,0.005189093765709652,-0.5039447301926981,-0.4143281051839858,0.1796044440391852,892.0879120879121,830.0366300366301,808.6813186813187,860.2564102564103,830.8424908424909,0.012451,0.100281,0.997131,-2.766418,3.424377,4.291687,1,1,1,1,1,82.234375
2017-07-25 13:53:58.390,,,,,,,,,,,,,,,,,,,,,,,,,,,,,,,,,,,,,,/muse/elements/blink
2017-07-25 13:53:59.031,0.3872198458105259,0.9868730536494821,1.25363493983559,-0.2673165827664071,-0.01220930637639291,0.4021624784170031,0.9125407573211203,0.06133126368686496,0.2701634326611191,0.2025201686284094,0.4963682227182755,0.2083484888076877,0.3713159557962268,-0.04755197577062014,-0.09080768158447404,0.3718134149598194,0.04012829701296841,-0.5116699967493969,-0.4205126151820262,0.1945223668139758,868.3150183150184,826.007326007326,803.4432234432235,830.4395604395604,891.2820512820513,0.019836,0.100342,1.004944,-2.437439,2.228088,3.798218,1,1,1,1,1,82.234375
2017-07-25 13:54:00.053,0.1014683013833365,-0.06996349487034231,0.7144576440226286,0.2696713424256659,0.1377871333384498,-0.4794939432227279,0.5439152214515353,0.06243848665495091,0.225813940543845,-0.453465523772639,0.3470976547519466,0.4288086849524363,0.1663615714366489,-0.2337916937256665,-0.2529384483490805,0.2154046790078059,-0.1465810292891509,-0.5167289440902296,-0.3939116750162627,-0.1341506780882683,880,832.0512820512821,809.0842490842491,841.7216117216118,894.1025641025641,0.036194,0.106140,0.996094,-1.263580,1.263580,1.323395,1,1,1,1,1,82.234375
2017-07-25 13:54:00.725,,,,,,,,,,,,,,,,,,,,,,,,,,,,,,,,,,,,,,/muse/elements/blink
2017-07-25 13:54:01.025,0.8633089384634387,1.061579418674592,1.022583752338938,1.068431726888358,0.4255114440035166,0.5446102464430095,0.4387449247715502,1.022489693793109,0.7403153324236972,0.345067701924811,0.3443649408844416,1.16461122724523,0.4094435211849974,-0.2461513578951712,-0.2673575724385509,0.3019208370520519,0.08392005688960125,-0.4077511818548216,-0.2948715442503967,0.1239561482163055,873.956043956044,832.0512820512821,810.6959706959707,833.2600732600733,855.0183150183151,0.026917,0.104309,1.000549,-2.519684,4.172058,4.089813,1,1,1,1,1,82.234375
2017-07-25 13:54:01.963,,,,,,,,,,,,,,,,,,,,,,,,,,,,,,,,,,,,,,/muse/elements/blink
2017-07-25 13:54:02.044,1.644843590417481,1.135676644036465,1.005594448358398,1.504097218837579,0.8413737937463022,0.697805738000568,0.6155985975893568,1.415462129628255,0.5951880335288516,0.3973792299065525,0.4120574248223414,1.210117291648018,0.5768775107812222,-0.2257902979087012,-0.1445857029159593,0.439677653136696,0.2050609582251627,-0.4109080337781923,-0.3459466086725981,0.1717070999375631,864.2857142857143,832.8571428571429,815.1282051282052,842.1245421245421,836.0805860805862,0.038635,0.107056,1.000122,-2.355194,1.966400,2.714081,1,1,1,1,1,82.234375
2017-07-25 13:54:03.046,1.379719441894476,0.8051114974621381,0.7934177552263753,0.5029598397428786,0.9164781707267837,0.274644601878804,0.3622806147177044,0.2109019132790181,1.121349312380746,0.1872512012849353,0.2673452410141088,0.7780158621509293,0.5038609196137404,-0.2262821951016973,-0.1884041522237476,0.4346361043776186,0.06407684988276185,-0.4682785540339346,-0.2645254129473005,0.07823368204441651,892.893772893773,828.021978021978,802.6373626373627,857.032967032967,866.3003663003664,0.047058,0.108215,0.997864,-1.973877,2.766418,3.858032,1,1,1,1,1,82.234375
2017-07-25 13:54:04.024,1.074645061475379,-0.05144322389912984,0.01858149641016655,1.097395875895045,0.5965207818343193,-0.4456668637998074,-0.2386562001745085,0.4053963529925526,0.7540940853695971,-0.04920815499123998,-0.1160914751584649,0.6628872167162655,0.4613482984029489,-0.3376329712570114,-0.3129277449376446,0.4979892626100332,0.00276676045731875,-0.3651824401284334,-0.2867200718010753,-0.009825729053073591,850.989010989011,838.901098901099,828.8278388278388,820.7692307692308,873.5531135531136,0.105286,0.105286,1.001404,-5.286102,-22.049103,11.903076,1,1,1,1,1,82.234375
2017-07-25 13:54:04.311,,,,,,,,,,,,,,,,,,,,,,,,,,,,,,,,,,,,,,/muse/elements/blink
2017-07-25 13:54:05.028,1.260866859954166,0.8698717986374364,0.5703300682843588,1.308891531315834,0.5666677732408986,0.3165587216855647,0.2313001586629194,0.6506829388897122,0.5946737402992095,0.4678267865727909,0.6721806039027843,0.6571190364770084,0.500628490214567,-0.2765385111287674,-0.1195181496872187,0.6516749063097336,-0.03360343147082848,-0.3233673697823335,-0.3501471551188997,0.1328283157518443,883.2234432234433,831.2454212454213,810.2930402930403,850.989010989011,864.2857142857143,0.001282,0.125916,1.013611,0.859833,7.416992,-7.611389,1,1,1,1,1,82.125000
2017-07-25 13:54:06.045,0.5541008580586115,0.7813286213977632,0.4825860240329317,0.7382014892132167,0.4843465880406027,0.2456301305555583,0.1889576851518155,0.3456205976039104,1.140243455321605,0.4736927737688167,0.6721806039027843,0.6200139026868742,1.079078935219406,-0.1723463253974684,-0.085180222942532,0.3550267403748241,0.7826555964512528,-0.5769197973623769,-0.352568832452354,0.06825201831050971,736.959706959707,830.8424908424909,814.7252747252747,837.6923076923077,855.4212454212454,-0.147827,0.108215,0.993896,-1.128998,0.246735,-4.643097,1,1,1,1,1,82.125000
2017-07-25 13:54:07.047,0.5541008580586115,0.1554454194988042,0.01855324429608668,0.7786663990631056,0.4843465880406027,-0.452952487377576,-0.1670995713352654,0.5476489936302054,1.140243455321605,-0.1201601777436319,0.215039922795626,1.145698826782384,1.079078935219406,-0.1191772111238799,-0.0880879607437336,0.7017442058132364,0.7826555964512528,-0.6409297410231383,-0.4166812723500857,0.2767245058916467,904.981684981685,829.6336996336996,821.1721611721612,921.0989010989011,878.7912087912089,-0.056824,0.115540,0.995728,-1.353302,2.811279,5.517883,1,1,1,1,1,82.125000
2017-07-25 13:54:08.039,0.5541008580586115,0.06365713667777963,-0.1263953486988142,1.164836881721814,0.4843465880406027,-0.5049372403912781,-0.1478869563565836,0.6629567010956483,1.140243455321605,-0.1369816657976926,0.2063620690532436,1.257139649576483,1.079078935219406,-0.1479392459165648,-0.05561293283534451,0.843265967453027,0.7826555964512528,-0.4506570197463238,-0.07921954471803959,0.8746260669694943,844.9450549450549,828.8278388278388,806.6666666666667,842.5274725274726,909.0109890109891,-0.023193,0.110535,0.995850,-1.652374,1.570129,5.667419,1,1,1,1,1,82.125000
2017-07-25 13:54:09.031,0.5541008580586115,-0.3117191751038353,0.01344967737957637,1.044739657565458,0.4843465880406027,-0.5355977712781718,-0.1082104184369635,0.6109205027240578,1.140243455321605,-0.2123196484651561,0.04450202594031221,1.057056126048072,1.079078935219406,-0.3350906824513997,-0.07522733159060827,0.6268548616680953,0.7826555964512528,-0.5801928430572364,-0.1300351478598459,0.7054703631774296,853.8095238095239,831.6483516483516,817.5457875457876,832.4542124542124,838.4981684981685,-0.031067,0.099426,1.001831,-2.415009,4.336548,3.783264,1,1,1,1,1,82.125000
2017-07-25 13:54:10.053,0.5541008580586115,-0.1890810776144311,-0.02367477892933909,0.6001629861315176,0.4843465880406027,-0.4045321522256082,-0.3250991214554907,0.4939497228324768,1.140243455321605,-0.1428854619385077,0.2585048472629523,1.121233476764517,1.079078935219406,-0.3116849106916982,-0.1696483967789214,0.4698098331302718,0.7826555964512528,-0.6174207332145326,-0.6700679228437083,0.1257985048381683,833.2600732600733,828.8278388278388,812.7106227106227,847.7655677655678,847.7655677655678,-0.024414,0.111206,0.997803,-2.108459,2.497253,5.129089,1,1,1,1,1,82.125000
2017-07-25 13:54:11.046,0.5541008580586115,0.005702627570943128,0.06673175399954204,0.122175178551587,0.4843465880406027,-0.09847679488106248,-0.07911804605319137,0.3447510346819611,1.140243455321605,0.03432126257699283,0.2854071871870205,1.061610991801127,1.079078935219406,-0.1888503794905337,-0.1043743995598613,0.4865911200407257,0.7826555964512528,-0.5558020186131427,-0.5027230698926458,0.08361551995669858,864.6886446886447,850.1831501831502,811.0989010989011,843.3333333333334,864.2857142857143,-0.021606,0.104431,0.997681,-2.325287,4.134674,4.994507,1,1,1,1,1,82.125000
2017-07-25 13:54:12.047,0.5541008580586115,0.6506093365814072,0.7282275527795879,0.571239403950594,0.4843465880406027,0.2316293801043139,0.3541378775012201,0.5044070713200537,1.140243455321605,0.08036869617480873,0.06024010885864659,0.8238075479811461,1.079078935219406,-0.1490500778034202,-0.1445750149238788,0.5443573424761051,0.7826555964512528,-0.4496626650306799,-0.4875470182026401,0.0547371178444172,863.8827838827839,832.8571428571429,807.4725274725275,837.2893772893773,817.5457875457876,-0.033752,0.124268,1.002686,-3.730927,1.614990,3.970184,1,1,1,1,1,82.125000
2017-07-25 13:54:13.039,0.5541008580586115,0.4426124679071894,0.5459001626857516,0.5416057838331244,0.4843465880406027,0.07516106196170255,0.05404367635711221,0.366265055093269,1.140243455321605,0.1549124985547324,0.1726950794295632,1.014188202587463,1.079078935219406,-0.2481342250031102,-0.1688055490962801,0.5244995369727139,0.7826555964512528,-0.5533023208609384,-0.4404751104061216,0.01683718840137499,837.2893772893773,829.6336996336996,809.4871794871796,838.0952380952381,875.9706959706959,-0.023987,0.115723,1.000488,-1.899109,3.955231,3.745880,1,1,1,1,1,82.125000
2017-07-25 13:54:14.043,0.5541008580586115,0.1224342343706138,0.2607305981839125,-0.0200608807390196,0.4843465880406027,-0.1448595391148254,0.02454479936148761,0.1471211937747656,1.140243455321605,0.07753167037658612,0.1920068763963878,0.9232370077136508,1.079078935219406,-0.2668144738240896,-0.105125648573592,0.3607245957712489,0.7826555964512528,-0.8814865301063607,-0.5803900284207405,-0.0514664227457104,864.2857142857143,828.4249084249085,816.3369963369963,845.3479853479854,861.0622710622711,-0.031372,0.103943,1.001099,-2.340240,2.100983,4.501038,1,1,1,1,1,82.125000
2017-07-25 13:54:15.025,0.5541008580586115,-0.03575505020280668,0.516567377799007,-0.32029968196768,0.4843465880406027,-0.2837427681969434,0.1038499083509145,0.151866047049474,1.140243455321605,-0.03471485211389413,0.1104148290055201,0.8416654407034461,1.079078935219406,-0.185244941830193,-0.2556256081033101,0.4287010667479855,0.7826555964512528,-0.8735698606840928,-0.7165434587023748,-0.08947388542249027,857.8388278388279,828.4249084249085,814.7252747252747,838.901098901099,867.1062271062272,-0.031128,0.107788,1.002319,-1.891632,3.207550,4.583282,1,1,1,1,1,82.046875
2017-07-25 13:54:16.047,0.5541008580586115,-0.00583514510089506,-0.1002037617384557,0.02189600558875559,0.4843465880406027,-0.3600345520655178,-0.3638729080616225,0.02547035410528724,1.140243455321605,0.05218938397508613,0.008254912664936475,0.8784002543277314,1.079078935219406,-0.1199648329766292,-0.2846861565985579,0.3334067028246223,0.7826555964512528,-0.7237070855554458,-0.6421752597578833,-0.1178019819029813,836.0805860805862,834.4688644688645,805.4578754578755,854.2124542124542,872.7472527472528,-0.021118,0.113770,0.998779,-2.519684,3.820648,3.222504,1,1,1,1,1,82.046875
2017-07-25 13:54:16.761,,,,,,,,,,,,,,,,,,,,,,,,,,,,,,,,,,,,,,/muse/elements/blink
2017-07-25 13:54:17.033,0.5541008580586115,0.6036005850564471,0.4050723533808378,0.8057491480341813,0.4843465880406027,0.03238055844553499,-0.007734523307374163,0.8406138867678229,1.140243455321605,0.2087961715478381,0.2691036690339239,1.23856345923045,1.079078935219406,-0.1634487237677245,-0.2706132660013544,0.548362306017245,0.7826555964512528,-0.4916185337837068,-0.5145328465063085,0.04484586568538913,865.8974358974359,836.4835164835165,818.3516483516484,855.4212454212454,857.8388278388279,-0.027100,0.110840,0.998901,-2.160797,3.289795,4.239349,1,1,1,1,1,82.046875
2017-07-25 13:54:18.022,0.007382628384377173,0.1785714421421618,0.09251924952941928,0.9624305178403253,0.6062986078277285,-0.3711653536978927,-0.4465445366422313,0.9404617015187865,1.391859547589791,0.06266543169847777,0.07666326941148412,1.218832201014507,1.100478817100305,-0.3595621411577981,-0.4893497627403431,0.6401969117968946,1.039925288711859,-0.5626541402662742,-0.6578078207673107,-0.04720499431180595,872.3443223443223,831.2454212454213,809.8901098901099,849.7802197802198,892.4908424908425,-0.027527,0.105896,0.999146,-1.943970,3.342133,4.695435,1,1,1,1,1,82.046875
2017-07-25 13:54:18.590,,,,,,,,,,,,,,,,,,,,,,,,,,,,,,,,,,,,,,/muse/elements/blink
2017-07-25 13:54:19.041,-0.2498360244005086,0.6289736182584366,1.332926664668902,-0.01990992681289626,0.5107346932346597,-0.1554846538822943,0.5703558696172124,0.1004041983203493,1.290164521795487,0.2393729268822334,0.8604109961202876,0.2770621142108667,1.129956441342238,-0.1881121431096466,-0.1048317392462999,0.3109250737917919,0.9929493303087473,-0.3958760450102463,-0.5146998118579401,-0.1132324213410786,888.0586080586081,823.992673992674,809.4871794871796,868.3150183150184,837.2893772893773,-0.023621,0.110291,0.999084,-2.549591,2.856140,4.329071,1,1,1,1,1,82.046875
2017-07-25 13:54:20.039,-0.1102451583476395,0.8888331444679825,1.746599252393541,0.07932853477598219,0.4412831091677691,0.2765165466011409,0.8503770420947094,0.04837422624494216,1.043371231515658,0.358376242585192,0.8604109961202876,0.01257422961312628,1.1140679579518,-0.09831326813226673,-0.01740582793594819,0.160260493347631,0.9698051604706361,-0.3547906831102932,-0.4806736151757707,-0.2356910567884986,859.047619047619,828.8278388278388,816.7399267399268,845.3479853479854,897.3260073260074,-0.014587,0.114075,1.000244,-2.467346,2.863617,3.633728,1,1,1,1,1,82.046875
2017-07-25 13:54:21.052,0.04643951593419571,-0.1086765205595731,0.09466070819587778,0.2737383292597952,0.1965450296821202,-0.7269848596072885,-0.4055519736788012,0.4161635654885031,1.24368463224719,-0.07200665835500482,-0.2910145715319291,0.8070515713961173,1.424118632907207,-0.273819195788434,-0.2576289223755359,0.5289588558935376,0.9436553044337617,-0.5981662919569385,-0.596514095550305,-0.06473396397736547,880,831.6483516483516,814.3223443223443,843.3333333333334,840.1098901098901,-0.013611,0.115540,0.999817,-2.257996,3.686066,4.276733,1,1,1,1,1,82.046875
2017-07-25 13:54:22.052,-0.08290938936325674,-0.1796916929828699,-0.2631326398018888,-0.001018520755132718,0.2671154331205112,-0.4349551764374046,-0.4536690927419281,0.247141704836829,1.345126631438772,-0.03861502621784897,-0.262696991045399,0.7843032154499684,1.35540578281609,-0.3589093648907444,-0.1616698697899149,0.3756068651141614,0.929142189979579,-0.720674245078487,-0.6189022045545115,-0.1340501587521636,875.5677655677656,834.8717948717949,818.3516483516484,845.7509157509157,859.8534798534798,-0.012268,0.115601,1.005127,-2.385101,3.409424,4.194489,1,1,1,1,1,82.046875
2017-07-25 13:54:23.030,-0.1673270671550479,-0.2366594916082967,-0.4369093012724143,-0.2097155182139755,0.3394837819292906,-0.4861659223357276,-0.6092930088053191,0.08494322386614288,1.265166886216134,-0.09802249262291461,-0.2240291682007581,0.5553540798498989,1.018720787187076,-0.3910604295250388,-0.1490410145778799,0.33547574145555,0.83595774499875,-0.5316962015564227,-0.6399362626621407,-0.1386125111375581,856.6300366300367,826.8131868131868,815.5311355311355,845.7509157509157,875.1648351648352,-0.007996,0.112854,1.000916,-2.385101,3.312225,3.028107,1,1,1,1,1,82.046875
2017-07-25 13:54:24.032,-0.1647945932524949,-0.5408674254210116,-0.5234220989882791,-0.008832711195958954,0.194253148631499,-0.6139541843291003,-0.5747497444373543,0.2629900717142262,1.028307472574168,-0.07141599188709714,-0.2341801376167447,0.6511850421765486,1.03405878392817,-0.3776787608743542,-0.1544229986057638,0.3658605572408786,0.8834701024450579,-0.4889840576067715,-0.6077683863122482,-0.1327712553472035,829.6336996336996,822.7838827838829,818.3516483516484,848.974358974359,851.7948717948718,-0.017639,0.107422,1.000305,-2.407532,2.923431,4.216919,1,1,1,1,1,82.046875
2017-07-25 13:54:25.046,0.2165486792668274,-0.3534945031523832,-0.3972325711107842,0.2696146262155755,0.08123751968406927,-0.5132980788096263,-0.7748663136393324,0.02961867957470049,1.080667900081712,-0.1306142681645788,-0.282382914723342,0.5552881651805032,1.051016335915434,-0.3802386704759307,-0.3290608417491925,0.2314754571363835,1.043750323438567,-0.4621938096683553,-0.6152303369339501,-0.2192015991512263,889.6703296703297,836.0805860805862,819.1575091575091,842.9304029304029,890.0732600732601,-0.010376,0.104370,0.997986,-2.429962,3.020630,3.185120,1,1,1,1,1,81.921875
2017-07-25 13:54:26.061,0.3427706353754393,-0.4283428517385861,-0.4159659765289195,0.9439691394557529,0.1659602672291915,-0.5935627443229164,-0.4752151804892738,0.4126991763883891,1.193017621076285,-0.2764184150800616,-0.3325954365827493,0.6633038807596751,1.123771515586766,-0.2493798248996154,-0.4849402652349585,0.2513145230233886,1.11178577122996,-0.5449306806165486,-0.6408731710768268,-0.1573436727110804,906.1904761904763,839.7069597069598,817.948717948718,844.5421245421246,822.7838827838829,0.152222,0.204956,0.970581,-6.684265,9.495544,4.074860,1,1,1,1,1,81.921875
2017-07-25 13:54:26.335,,,,,,,,,,,,,,,,,,,,,,,,,,,,,,,,,,,,,,/muse/elements/blink
2017-07-25 13:54:26.924,,,,,,,,,,,,,,,,,,,,,,,,,,,,,,,,,,,,,,/muse/elements/blink
2017-07-25 13:54:27.049,0.4682717310882792,0.3295053169702042,0.2608299826340479,1.355274803794095,0.2625424167133897,0.1302934228286842,0.3494677810120644,0.7965901907893047,1.088877728450391,0.2322235199597109,0.5614904390829911,0.2991908194558498,1.129117133794091,-0.0538692428856392,-0.2412421660096209,0.1523791024404951,1.102789365586451,-0.5280585260205968,-0.6228749142895982,-0.3209838838374406,845.7509157509157,824.7985347985348,824.7985347985348,833.6630036630037,868.3150183150184,-0.005188,0.131897,0.995911,2.601929,7.693634,3.409424,1,1,1,1,1,81.921875
2017-07-25 13:54:27.950,,,,,,,,,,,,,,,,,,,,,,,,,,,,,,,,,,,,,,/muse/elements/blink
2017-07-25 13:54:28.024,0.4682717310882792,0.414725951052334,0.3695331316935992,1.28805905985994,0.2625424167133897,0.1225642621203611,0.3369350294917104,0.5811729784850327,1.088877728450391,0.2824237931804138,0.5498778483294348,1.006981871049287,1.129117133794091,-0.02809330987875052,-0.2827714003404941,0.3151149339826931,1.102789365586451,-0.5587503536880993,-0.5348896701435691,-0.3613819892945302,868.3150183150184,833.2600732600733,816.7399267399268,845.3479853479854,854.6153846153846,-0.034668,0.112610,0.994263,-2.138367,-4.486084,11.200256,1,1,1,1,1,81.921875
2017-07-25 13:54:29.032,0.4682717310882792,0.7886091516409897,0.6811484390135618,1.541808436720756,0.2625424167133897,0.4776406696870225,0.3347852761939749,0.9460505577460253,1.088877728450391,0.5336802394071112,0.08696747641819744,1.410972472838165,1.129117133794091,-0.1108232634062381,-0.2508432084807326,0.5462358957841335,1.102789365586451,-0.5300538736357119,-0.4636588290843375,0.1355745144922277,855.0183150183151,828.8278388278388,809.8901098901099,836.8864468864469,874.7619047619048,0.014648,0.122742,1.006409,-2.901001,4.927216,-3.431854,1,1,1,1,1,81.921875
2017-07-25 13:54:30.039,0.4682717310882792,1.083671364499081,0.9364725278020231,1.215623493662183,0.2625424167133897,0.4798792396996778,0.4425613548944185,0.7561993079985613,1.088877728450391,0.3940516768337273,0.2532413666831945,1.054133803325037,1.129117133794091,-0.1260703779646732,-0.1778935805561199,0.6651805137222777,1.102789365586451,-0.4583505762502847,-0.5191053895457779,0.3029615188070633,862.6739926739926,829.6336996336996,818.7545787545788,845.3479853479854,885.6410256410256,0.002380,0.129700,0.998657,-1.697235,3.282318,3.603821,1,1,1,1,1,81.921875
2017-07-25 13:54:31.038,0.4682717310882792,0.3781423037750519,0.305931974514655,0.1131957061612993,0.2625424167133897,0.09045186159631372,-0.03799404701621348,0.2996502841033136,1.088877728450391,0.2143000554901854,0.3504020810751301,0.8475959068677998,1.129117133794091,-0.2180735231267946,-0.19395239659768,0.5111976893656565,1.102789365586451,-0.5189786275444349,-0.6865899417333354,0.03338129376401968,892.4908424908425,844.5421245421246,805.8608058608058,849.7802197802198,842.9304029304029,-0.007507,0.130249,0.995850,-2.362671,3.110352,3.282318,1,1,1,1,1,81.921875
2017-07-25 13:54:32.026,0.4682717310882792,0.3543634662649919,0.2505816842691309,0.6840814053120478,0.2625424167133897,0.006490969221380583,-0.2049032446717763,0.4022348630750677,1.088877728450391,0.1432856123731039,0.3007483092930244,0.8049364148894377,1.129117133794091,-0.3139610981441071,-0.3010959704009228,0.4808799638848494,1.102789365586451,-0.5768689592230306,-0.6091798248013801,0.02586154373079408,845.7509157509157,832.4542124542124,819.5604395604396,838.4981684981685,839.3040293040293,-0.010315,0.121399,1.000427,-1.943970,3.768311,4.658051,1,1,1,1,1,81.921875
2017-07-25 13:54:32.841,,,,,,,,,,,,,,,,,,,,,,,,,,,,,,,,,,,,,,/muse/elements/blink
2017-07-25 13:54:33.042,0.4682717310882792,0.03124040967657339,-0.3132291213709015,0.9987559323820249,0.2625424167133897,-0.3081534736319736,-0.5436334800712205,0.7035168965677409,1.088877728450391,-0.1103584704086371,-0.2042727745110178,1.12354287585146,1.129117133794091,-0.3150512291471452,-0.3407817748959158,0.5196770559404444,1.102789365586451,-0.8457061690396577,-0.6465900607252327,-0.05314341970416529,870.3296703296703,830.4395604395604,820.7692307692308,839.7069597069598,828.4249084249085,-0.008545,0.116577,1.002075,-2.145844,2.616882,3.596344,1,1,1,1,1,81.921875
2017-07-25 13:54:34.032,0.972737831495846,-0.1581140761939383,-0.4456132014646153,1.040076812312056,0.9409985719923465,-0.3848386711909664,-0.5423862459549256,0.8828283290759278,1.320516370175888,-0.03385804700542058,-0.40509131810475,1.222269715238434,1.32111111354661,-0.2450498040318393,-0.2672868342669253,0.6582981250558438,0.9361219600816659,-0.705785067296164,-0.625520304764057,-0.1418698726663584,882.8205128205128,842.1245421245421,815.934065934066,863.8827838827839,871.5384615384615,-0.011414,0.114868,0.998169,-2.743988,3.544006,3.641205,1,1,1,1,1,81.921875
2017-07-25 13:54:34.684,,,,,,,,,,,,,,,,,,,,,,,,,,,,,,,,,,,,,,/muse/elements/blink
2017-07-25 13:54:35.027,1.142641963181455,0.2138211124067868,-0.1864673429921901,1.075046970420632,0.8316836845307702,-0.2869208335006508,-0.19347193440689,0.9468292743148291,1.518420721360273,0.0567897757902755,-0.0637328494392794,1.101261841364038,1.260387067717775,-0.3041675733490986,-0.38850061409928,0.599008447419302,1.100277004550358,-0.5692052873855095,-0.5650956295771675,-0.003213115751810445,869.92673992674,836.0805860805862,809.0842490842491,843.3333333333334,820.7692307692308,-0.014343,0.119812,1.001770,-1.465454,3.357086,3.514099,1,1,1,1,1,81.843750
2017-07-25 13:54:36.021,1.122198458626054,-0.09778308704148789,-0.1505371031186875,1.210772494910326,0.6005591898249955,-0.3732693694321514,-0.404014279752643,0.8275126556329438,1.541202702161401,-0.00434581755354183,-0.07366170452510508,0.912001728631058,1.336626863444156,-0.2730182173536257,-0.4406435736838024,0.4285290212457093,1.281945167324491,-0.6039058895858489,-0.5555328582107141,0.09577251936482242,878.7912087912089,837.6923076923077,813.919413919414,834.8717948717949,814.7252747252747,-0.012817,0.117859,1.003784,-1.570129,3.072968,4.284210,1,1,1,1,1,81.843750
2017-07-25 13:54:37.044,0.5814255479223401,-0.2212218140725305,-0.1439529148906481,0.7770054310172139,0.5633059993683033,-0.410284127130272,-0.4810551623902631,0.542886371683786,1.678777575199457,-0.01767871143125481,-0.126246421801791,0.7254556401736167,1.469220405111029,-0.1356353725891734,-0.3406884321273887,0.2681674866829637,1.077209251134374,-0.5997656728269795,-0.5638520012766131,-0.1326047545783142,834.4688644688645,830.8424908424909,821.5750915750916,847.3626373626374,814.3223443223443,-0.008057,0.116699,0.999146,-2.676697,3.319702,4.239349,1,1,1,1,1,81.843750
2017-07-25 13:54:38.035,0.1821569119739748,-0.07455858436111197,-0.4502168864148653,0.09933656816509215,0.5276209988684057,-0.5005155355624789,-0.6548499492824714,0.0291439469463009,1.577307127149167,-0.2654389653076213,-0.08101280472036246,0.8237505531519715,1.325017089105877,-0.3065391326167642,-0.275671382670697,0.292557862645672,1.039318336708411,-0.6407267376067365,-0.6316907419861556,-0.1913760384367438,871.5384615384615,834.8717948717949,813.919413919414,840.1098901098901,852.1978021978023,-0.009705,0.115234,0.998657,-1.951447,3.028107,3.917847,1,1,1,1,1,81.843750
2017-07-25 13:54:39.044,-0.1182431391883448,-0.1254845226701314,-0.5358066197090865,-0.01628978123661589,0.5905249444457412,-0.2085797324903682,-0.5278111540696148,0.196770111650256,1.350907172615414,-0.227025926262247,-0.09010590607446872,0.77300967111715,1.210346221956657,-0.321089333902647,-0.3384165488731284,0.2051447381900459,0.9973106928331155,-0.6941183781912005,-0.5272575194689764,-0.1231428137582294,838.0952380952381,833.6630036630037,820.3663003663004,849.7802197802198,852.6007326007326,-0.007507,0.116760,1.001709,-1.786957,2.990723,3.252411,1,1,1,1,1,81.843750
2017-07-25 13:54:40.030,-0.1313060572151437,0.05147695792077071,-0.3338729879775849,0.3102011982880311,0.5576567604724267,-0.236474305267425,-0.3705497176704733,0.2311632307455496,1.256442752214145,-0.06894056834035034,0.2057781436783377,0.9339929176039244,1.154649295456344,-0.2611534513384761,-0.2848928620719394,0.4138534767404989,0.8910580882135113,-0.4201030854296776,-0.5366799600306502,0.02358402496609943,912.6373626373627,837.2893772893773,814.3223443223443,850.1831501831502,851.3919413919414,-0.111877,-0.001587,0.905823,-0.112152,-2.287903,-22.325745,1,1,1,1,1,81.843750
2017-07-25 13:54:41.022,0.04426202330298327,0.3038736658197584,0.3208300611513814,0.6891824642778883,0.1752610731459262,0.2536168601240957,-0.1988695395205471,0.2088089101458651,0.9846286346488998,0.3843305107357227,0.3484785411954609,1.079653534490995,1.108528807949913,-0.09188254589310998,-0.006085858830623669,0.8439084971375124,0.7442193376164193,-0.4231372854628271,-0.3612520106070592,0.3386593615044778,832.8571428571429,834.8717948717949,822.7838827838829,819.1575091575091,799.0109890109891,-0.071899,0.141052,0.939148,-7.491760,-7.200165,8.957214,1,1,1,1,1,81.843750
2017-07-25 13:54:42.024,0.04426202330298327,0.4010969729164341,0.7346070288875381,1.642918031903208,0.1752610731459262,0.2990061909070417,0.1400597272292476,0.6745233905212598,0.9846286346488998,0.593725852937088,0.3289742760531588,1.116778669295534,1.108528807949913,-0.06370983366905436,0.02863976188921958,0.7457025512031145,0.7442193376164193,-0.4612201883782329,-0.3570538742055924,0.1459225007442524,821.978021978022,832.4542124542124,821.1721611721612,853.4065934065934,782.4908424908425,0.036865,0.159180,0.964600,-1.420593,-0.254211,-1.338348,1,1,1,1,1,81.843750
2017-07-25 13:54:43.028,0.04426202330298327,0.1947497306105626,0.616549567141528,1.449018648357501,0.1752610731459262,0.1052447050477867,0.113866659441501,0.7504281727710617,0.9846286346488998,0.5501524440003012,0.4095405017955719,1.112279061237202,1.108528807949913,-0.07595887574101744,-0.07203747029135169,0.6955827480055816,0.7442193376164193,-0.405955265679815,-0.3940536878456125,0.1836602062793765,865.8974358974359,831.6483516483516,825.2014652014652,850.989010989011,816.7399267399268,-0.030762,0.224304,1.055542,12.426453,3.693542,-6.377716,1,1,1,1,1,81.843750
2017-07-25 13:54:44.026,0.04426202330298327,0.05377486930779963,0.3096974716800006,1.289965838850557,0.1752610731459262,-0.00675219720853198,-0.1228428603213522,0.7479084958247662,0.9846286346488998,0.570618690466913,0.4676814627762992,1.176001316432411,1.108528807949913,0.1014141760575691,-0.003046950607951261,0.757984063241265,0.7442193376164193,-0.2876639541117713,-0.2460424204817221,0.3313890704373773,908.2051282051282,839.3040293040293,819.96336996337,821.1721611721612,792.5641025641025,0.005981,0.320435,1.007263,-12.142334,14.228363,32.120361,1,1,1,1,1,81.843750
2017-07-25 13:54:45.046,0.04426202330298327,0.3683646426805078,0.120259543743379,1.080939815222388,0.1752610731459262,0.141245324240995,0.3007128442663228,0.6434540537464282,0.9846286346488998,0.6205630507201205,0.5720110160888379,1.092604568149244,1.108528807949913,0.14515147251099,0.09681878207286614,0.8575471058992429,0.7442193376164193,-0.307342221357097,-0.2437208898558981,0.36463088584429,913.040293040293,831.6483516483516,819.5604395604396,841.3186813186813,841.7216117216118,-0.080322,0.152344,1.048767,-8.650665,3.192596,3.170166,1,1,1,1,1,81.734375
2017-07-25 13:54:46.022,1.491072548257055,0.3757998386001959,0.3902700333882642,0.9362003800275575,0.4581174853323615,0.2018757025888868,0.1943211876932642,0.5494216882007121,0.9809083390482578,0.2589651482950294,0.361979000088382,1.075974068446849,0.5685145674152191,-0.3652225090809845,-0.2248811596494704,0.4981520326376505,0.2591617831833167,-0.3790301774132373,-0.3839444365495374,0.1708245401610982,930.7692307692308,842.5274725274726,811.0989010989011,836.8864468864469,880.8058608058608,-0.224854,0.086121,0.991455,-5.876770,4.321594,5.383301,1,1,1,1,1,81.734375
2017-07-25 13:54:46.757,,,,,,,,,,,,,,,,,,,,,,,,,,,,,,,,,,,,,,/muse/elements/blink
2017-07-25 13:54:47.055,1.57840152297546,0.5093693581573756,0.4227835108287369,0.713427402486163,0.5964249134534605,0.3580411423414054,-0.007094820858979029,0.1338049704227137,1.160643834167272,0.3190096153679028,0.1003435756799742,0.5186574178808643,0.6564360206912665,-0.2715733544582272,-0.3510226898002507,0.2274265593249979,0.1006650973655297,-0.2918564241121058,-0.6250944368679224,0.06640452199993027,869.1208791208792,834.4688644688645,804.6520146520147,877.5824175824176,823.992673992674,-0.114685,0.138062,0.981079,-9.136658,4.613190,4.112244,1,1,1,1,1,81.734375
2017-07-25 13:54:48.024,1.920979283921668,0.8121477194408737,0.7550779046474517,0.6605183274299488,0.7377343814884604,0.8141568346800027,0.2445797259165535,0.2743506590035778,1.020731282443661,0.3411086357385764,0.06848452703951118,0.06647922977507792,0.8147971832377811,-0.0001925493313045015,-0.4062982997379254,0.2618038240038679,0.08737625914556896,-0.2865091493689937,-0.6125194088033639,0.08536037557959261,740.989010989011,831.2454212454213,818.3516483516484,856.2271062271062,880,-0.031738,0.139343,0.993286,0.239258,5.016937,-1.891632,1,1,1,1,1,81.734375
2017-07-25 13:54:49.022,1.920979283921668,0.202360546774903,0.2045151451226655,0.2988596851695495,0.7377343814884604,-0.0002827338659263404,-0.2629678859527725,0.1271828793366113,1.020731282443661,0.1746144274010055,0.1066440485280502,0.6735008790108132,0.8147971832377811,-0.1811974737925993,-0.3985618121778638,0.5323986710810287,0.08737625914556896,-0.5694692103861552,-0.5359214388968101,0.2773409108934004,830.8424908424909,828.8278388278388,821.1721611721612,849.7802197802198,818.7545787545788,-0.118835,0.112549,0.990173,-2.355194,2.332764,4.650574,1,1,1,1,1,81.734375
2017-07-25 13:54:50.021,1.920979283921668,-0.1353778033045066,-0.2258773183354886,0.07261669415720946,0.7377343814884604,-0.3530387624037333,-0.3961733938107267,0.05190886395732056,1.020731282443661,0.2328993662719897,0.1784331469242033,0.9381108281862427,0.8147971832377811,-0.2904375623212248,-0.2883755430632391,0.4157445242642782,0.08737625914556896,-0.566679068526144,-0.6438875318791172,-0.01438723711548193,865.0915750915751,844.9450549450549,805.8608058608058,838.901098901099,831.2454212454213,-0.068604,0.152405,0.971985,-3.738403,-3.469238,12.187195,1,1,1,1,1,81.734375
2017-07-25 13:54:51.052,1.920979283921668,-0.1362067165553503,-0.08682576699534339,0.1660137333913957,0.7377343814884604,-0.3589638510103734,-0.1885334151414258,0.2566982768140083,1.020731282443661,0.2442869354818882,0.2556925903209669,1.191629131011838,0.8147971832377811,-0.1836525797824538,-0.2073226478696113,0.5719789467723446,0.08737625914556896,-0.5732326674622664,-0.6148799238877679,0.1715943647799006,871.1355311355312,841.3186813186813,806.6666666666667,840.9157509157509,893.2967032967033,-0.091919,0.128418,0.986511,-2.512207,7.790833,5.248718,1,1,1,1,1,81.734375
2017-07-25 13:54:52.042,1.920979283921668,0.001687821784831746,-0.02167412071786963,0.3595569140124127,0.7377343814884604,-0.1069307123429733,-0.2597900642673968,0.3749179362308658,1.020731282443661,0.1417121868021717,0.162288837015699,1.244424018122461,0.8147971832377811,-0.1461890488513738,-0.2178550757608403,0.6752695928128654,0.08737625914556896,-0.5091241908924197,-0.5079796443460828,0.5820001214599023,882.4175824175825,828.4249084249085,823.5897435897436,848.974358974359,823.5897435897436,-0.055542,0.129822,0.991943,-2.646790,2.489777,10.385284,1,1,1,1,1,81.734375
2017-07-25 13:54:52.110,,,,,,,,,,,,,,,,,,,,,,,,,,,,,,,,,,,,,,/muse/elements/blink
2017-07-25 13:54:53.044,1.920979283921668,0.4077668774554701,0.4254819056126522,0.7593211464029173,0.7377343814884604,0.2534341999314059,0.1333766829176549,0.8899042803320352,1.020731282443661,0.3424422948029431,0.1965006572837976,0.955895895369431,0.8147971832377811,0.01810325175210846,-0.1906823157000922,0.6810132644396536,0.08737625914556896,-0.4251952834839062,-0.3157225582565215,0.6257536468413877,778.4615384615385,860.2564102564103,840.5128205128206,722.0512820512821,830.4395604395604,-0.064697,0.128235,0.990356,-2.826233,3.738403,3.955231,1,1,1,1,1,81.734375
2017-07-25 13:54:53.134,,,,,,,,,,,,,,,,,,,,,,,,,,,,,,,,,,,,,,/muse/elements/blink
2017-07-25 13:54:54.040,1.920979283921668,0.2763340716527348,0.5779748605323387,0.8203373901622395,0.7377343814884604,0.4535055552552339,0.1225055276640194,0.9207912864956429,1.020731282443661,0.766820575894496,0.1252412463978547,0.78876806609056,0.8147971832377811,0.02545758096446167,-0.06636859277381953,0.7088856584434541,0.08737625914556896,-0.356815337773781,-0.2755124418721897,0.658569911940907,882.4175824175825,835.6776556776557,815.5311355311355,844.5421245421246,886.0439560439561,-0.055603,0.132141,1.005188,-3.529053,1.502838,6.130981,1,1,1,1,1,81.734375
2017-07-25 13:54:55.061,1.920979283921668,-0.003254923467955098,0.1327031204258251,1.070448303526977,0.7377343814884604,0.1154652986525723,-0.4943936797014002,0.6813687134014433,1.020731282443661,0.6287880664152141,-0.02383906629135097,0.9306458417008916,0.8147971832377811,-0.2155000756299531,-0.2082234573351759,0.6807444797277392,0.08737625914556896,-0.6097740783586479,-0.5502318350355251,0.1907286538895066,907.3992673992674,850.989010989011,810.6959706959707,840.9157509157509,849.7802197802198,0.000488,0.151001,0.994446,0.014954,1.398163,5.450592,1,1,1,1,1,81.656250
2017-07-25 13:54:55.568,,,,,,,,,,,,,,,,,,,,,,,,,,,,,,,,,,,,,,/muse/elements/blink
2017-07-25 13:54:56.022,1.920979283921668,0.2291642129112906,0.1687501137289023,1.178634021451554,0.7377343814884604,0.0310162443945512,-0.07600509937972584,0.8427203502762198,1.020731282443661,0.214777144812598,0.05734736913581324,0.9791679061456507,0.8147971832377811,-0.154545157113951,-0.09501279171740193,0.7702079348567669,0.08737625914556896,-0.2644044997085638,-0.3093873963311758,0.3037531152144741,846.5567765567765,829.2307692307693,818.3516483516484,844.5421245421246,799.4139194139194,-0.004211,0.142944,0.992493,-5.390778,2.721558,6.796417,1,1,1,1,1,81.656250
2017-07-25 13:54:57.043,1.920979283921668,0.1632315547111953,0.06981313178159677,-0.2100036052576801,0.7377343814884604,-0.3319751452046378,-0.1819553091111952,0.1637682235604986,1.020731282443661,0.08138228103357428,0.02534413861790412,0.5115000926315536,0.8147971832377811,-0.2517388623737534,-0.1985201238135876,0.502247847271337,0.08737625914556896,-0.3625494893407953,-0.3040187709580268,0.07951607241108459,852.1978021978023,835.6776556776557,819.1575091575091,843.7362637362637,837.6923076923077,-0.012085,0.135498,0.999207,-2.287903,3.603821,4.015045,1,1,1,1,1,81.656250
2017-07-25 13:54:58.028,1.920979283921668,0.05558037937649978,-0.1637423177008391,0.3910375226485384,0.7377343814884604,-0.4997960973456714,-0.7071482680527967,0.05804553728419874,1.020731282443661,-0.1372608288449629,-0.05316870746939201,0.5440892949810843,0.8147971832377811,-0.4148770193216559,-0.3544472290521724,0.3149689292224926,0.08737625914556896,-0.664346184546955,-0.6339882626809294,-0.0499603650731052,941.6483516483516,842.5274725274726,817.5457875457876,911.8315018315019,837.6923076923077,0.167542,0.177734,0.964661,-3.872986,-17.667694,-0.037384,1,1,1,1,1,81.656250
2017-07-25 13:54:58.430,,,,,,,,,,,,,,,,,,,,,,,,,,,,,,,,,,,,,,/muse/elements/blink
2017-07-25 13:54:59.059,1.920979283921668,0.9121555098122075,1.018885202403097,0.6897955500326189,0.7377343814884604,0.424599724908268,0.6372443672705191,0.1706817224216097,1.020731282443661,0.2239512800473192,0.1003515429856597,0.3933397145643243,0.8147971832377811,-0.1135261513265357,-0.2260399010288461,0.3285400976068482,0.08737625914556896,-0.457779471111399,-0.5306805290655744,0.03018740197384331,863.8827838827839,836.4835164835165,815.934065934066,849.3772893772895,846.1538461538462,0.024048,0.130432,1.004578,-2.093506,6.676788,8.777771,1,1,1,1,1,81.656250
2017-07-25 13:55:00.022,0.08130912487113418,0.8659480557486525,0.9392250378834207,0.1639681139310589,-0.09771099333092863,0.3852864600981567,0.5923120493644565,-0.01549870038294346,0.9218572077913745,0.2227555896931896,0.1060113480071015,0.2834813800661118,0.9832250126279214,-0.0713030311456158,-0.2373970304109229,0.2250936908398097,0.61464609030761,-0.4641910470934871,-0.6425907212787584,-0.310005750073261,871.5384615384615,844.1391941391942,826.4102564102565,860.6593406593407,879.1941391941392,0.010315,0.122620,0.998596,-1.383209,2.923431,3.342133,1,1,1,1,1,81.656250
2017-07-25 13:55:01.032,0.66149395137131,0.1505326122787405,0.309870925263551,0.4504185017474565,0.3637008636642574,-0.1982965621389702,-0.01021145494843335,0.3821305105758358,1.142978240842561,0.1053220506363354,0.1259390903112906,0.6773161742243519,0.9595401076350846,-0.2124678118268958,-0.3841786348168573,0.2697866843327471,0.584317103292627,-0.3356668372523169,-0.6088267563183192,0.01196016570025374,877.5824175824176,832.4542124542124,820.7692307692308,853.8095238095239,837.2893772893773,-0.115784,0.081116,0.988403,-8.269348,9.742279,-0.657959,1,1,1,1,1,81.656250
2017-07-25 13:55:01.994,,,,,,,,,,,,,,,,,,,,,,,,,,,,,,,,,,,,,,/muse/elements/blink
2017-07-25 13:55:02.024,1.134663685150991,0.7134896024167362,0.9882584528819232,1.046204198756394,0.6805383194672889,0.3757769246089719,0.4695848934590305,0.5484185826614236,1.172996201872452,0.2939338668173093,0.4637772460464226,1.206788732908846,1.07122441199371,-0.09030536537725423,-0.291316317635508,0.4664770288330447,0.5812423292692361,-0.3345987971600027,-0.4890808901717298,0.1545697146052475,873.956043956044,843.7362637362637,817.1428571428571,844.1391941391942,803.4432234432235,-0.059021,0.129211,0.997131,-0.142059,-2.901001,9.570312,1,1,1,1,1,81.656250
2017-07-25 13:55:03.036,1.262377228820469,0.9101428247797489,0.6536532973261082,1.319917172785142,0.6347216251652281,0.4980053918590389,0.3692671275771653,0.9081361797331725,1.008475472966552,0.2960694697449096,0.3114119387888016,1.418143053198274,1.182601473096146,-0.1297730800488425,-0.3179809596927436,0.690453993404167,0.5957054492758572,-0.5200175807543898,-0.494037346930694,0.1287330903814063,848.1684981684982,849.3772893772895,811.5018315018315,841.3186813186813,867.1062271062272,-0.006592,0.168945,0.992676,-0.373840,2.340240,-11.940460,1,1,1,1,1,81.656250
2017-07-25 13:55:03.593,,,,,,,,,,,,,,,,,,,,,,,,,,,,,,,,,,,,,,/muse/elements/blink
2017-07-25 13:55:04.023,1.262377228820469,1.103611774140767,1.030033249425131,1.110031816293178,0.6347216251652281,0.6832464105148006,0.6588692284150852,0.9821640572947254,1.008475472966552,0.5791375300045701,0.4659251183690098,1.17104819038762,1.182601473096146,-0.2076638966870885,-0.157284249126149,0.6705463198770016,0.5957054492758572,-0.4445318715700893,-0.4118019335216194,0.2756163996241166,879.1941391941392,869.1208791208792,794.1758241758242,857.4358974358975,794.5787545787546,-0.018127,0.143860,0.996094,-2.220612,3.476715,-0.082245,1,1,1,1,1,81.656250
2017-07-25 13:55:05.048,1.262377228820469,1.311977420058196,1.23919230689847,1.145314633210724,0.6347216251652281,0.7683674259580792,0.7244938001238929,1.055731412740406,1.008475472966552,0.5791375300045701,0.4179693135391838,1.168066078143399,1.182601473096146,-0.2084005456214117,-0.123054301782588,0.6911989961829984,0.5957054492758572,-0.4012870030799364,-0.389646168961698,0.2381126584322366,872.7472527472528,835.6776556776557,820.3663003663004,842.9304029304029,838.4981684981685,-0.017639,0.132507,0.993713,-2.145844,2.205658,6.497345,1,1,1,1,1,81.546875
2017-07-25 13:55:05.746,,,,,,,,,,,,,,,,,,,,,,,,,,,,,,,,,,,,,,/muse/elements/blink
2017-07-25 13:55:06.051,1.262377228820469,1.374872378027707,1.166252705124489,0.9517244723594155,0.6347216251652281,0.894458297778025,0.6254479410067331,0.8098313569359578,1.008475472966552,0.5930411670764375,0.2025672093298478,0.8426509142323263,1.182601473096146,-0.1074057855826821,-0.2945659419055419,0.3627237230710233,0.5957054492758572,-0.4626930390243779,-0.2375916783326174,0.03269265660617796,883.6263736263736,833.2600732600733,817.1428571428571,845.7509157509157,905.7875457875458,-0.010254,0.135376,0.992737,-2.355194,3.506622,4.044952,1,1,1,1,1,81.546875
2017-07-25 13:55:07.022,1.262377228820469,1.33662445800554,1.085725182277632,0.6218290921345133,0.6347216251652281,0.8670954943578415,0.4826621273217159,0.4660833802399075,1.008475472966552,0.6036045550752113,0.2136929457487016,0.6492071591107318,1.182601473096146,-0.1718464377503914,-0.2825772334099275,0.1833241096263914,0.5957054492758572,-0.5008783434160355,-0.2658918652197692,0.02799092395175194,865.0915750915751,831.6483516483516,818.7545787545788,832.4542124542124,820.3663003663004,-0.014343,0.132812,0.998230,-2.729034,3.558960,2.265472,1,1,1,1,1,81.546875
2017-07-25 13:55:08.022,0.3062813317401321,-0.08376118504942061,-0.137103458643154,0.4807368802671493,0.4260406135566705,-0.2028564051045143,-0.6596513016941957,0.2069182634933017,1.597935629567474,0.01321976958073584,-0.1554278561827145,0.8768580938076688,1.314869381578961,-0.4168875069956678,-0.3102821164886023,0.26361365982143,1.056252759209625,-0.42890885539324,-0.5190062263292956,-0.02827469082679948,838.0952380952381,832.4542124542124,817.948717948718,834.4688644688645,826.8131868131868,-0.017212,0.128357,0.990173,-2.818756,3.267365,3.416901,1,1,1,1,1,81.546875
2017-07-25 13:55:09.030,0.4030121745311592,-0.2785547080481177,-0.7455521234035363,0.552013866111704,0.2892047082485614,-0.34851175925855,-0.8258519585127883,0.2490541764155602,1.668994065519197,-0.06658473289443199,-0.1591724880657172,0.8934815938221545,1.282228509799807,-0.2533160128247837,-0.3179521194944244,0.3412301002804788,0.9639627936857645,-0.4700906120691882,-0.6198887444459424,-0.02593051373253553,814.7252747252747,836.0805860805862,823.992673992674,845.7509157509157,832.0512820512821,-0.024414,0.129822,0.996887,-2.108459,3.267365,3.768311,1,1,1,1,1,81.546875
2017-07-25 13:55:10.024,0.5096080451558322,-0.06322170958922757,-0.4152104028948309,0.7903316145456216,0.4198233958538403,-0.7193373254730254,-0.5068166564205664,0.7084549403073295,1.421968031342669,-0.2631131695248903,-0.2530721051606336,0.8977198264504274,1.264206358559462,-0.1421677217031903,-0.3447155563904263,0.2701042964449563,1.010263097861883,-0.4792446287853256,-0.7124124989914773,-0.1374014889346174,894.1025641025641,840.5128205128206,817.5457875457876,842.5274725274726,856.2271062271062,-0.023010,0.131348,0.993408,-2.452393,3.947754,5.585175,1,1,1,1,1,81.546875
2017-07-25 13:55:11.024,0.4111178680029193,0.1867415334120553,0.02252165579536893,0.4382862712780528,0.4328537021212081,-0.2555287312250214,-0.1240068863624029,0.1810544262208664,1.455152221986826,-0.02451285373428742,0.1121444003126824,0.7881946420905735,1.317750480801073,-0.2274993150283775,-0.2501829374545149,0.2652830088485051,0.9711791929904566,-0.4623705643283367,-0.6899756508260004,-0.1488784759925302,848.5714285714286,812.3076923076924,842.1245421245421,870.7326007326008,799.8168498168499,-0.023010,0.132080,1.000488,-2.228088,2.968292,3.992615,1,1,1,1,1,81.546875
2017-07-25 13:55:12.055,0.5788249354286934,1.148556293191759,0.9773335046758314,0.7434516868479636,0.6704582046166686,0.6008637783022284,0.2579218184863197,0.6122225182707531,1.110267936470758,0.1741018985200315,0.1727274110193625,0.8107096706266935,1.307352892604762,-0.3000893939324382,-0.1356075521341662,0.3874260845987575,0.8594088324184763,-0.5433989989520455,-0.5239932412199161,-0.06804484660266379,877.5824175824176,839.7069597069598,817.1428571428571,851.3919413919414,909.0109890109891,-0.016357,0.135559,1.001953,-2.026215,2.915955,3.521576,1,1,1,1,1,81.546875
2017-07-25 13:55:13.037,0.7998478832450669,1.259421068839787,1.179958620558645,1.030226049677844,-0.02413237698919558,0.6831019132272436,0.5641064881298092,0.8373692407505356,1.493564403514197,0.06456916265044016,0.2076485495256066,0.9519688051152735,1.222141348011446,-0.2908293297640722,-0.27118298932761,0.2811476481764807,1.212570724912205,-0.4342744731010528,-0.539849461111888,0.01810491570842935,859.047619047619,828.8278388278388,816.3369963369963,846.5567765567765,831.2454212454213,-0.015686,0.132996,0.997437,-2.676697,3.446808,2.818756,1,1,1,1,1,81.546875
2017-07-25 13:55:14.026,0.7748751723601767,1.410830470149143,1.278106665451322,1.279730760681356,0.5480426744465992,0.8274937779014677,0.6739546077677906,1.011363745994939,1.242878785764293,0.3931742560680226,0.4387285284862745,0.7863915728808216,1.209196984607844,-0.2168916997006878,-0.1236184345808894,0.3436177273076306,1.258519434135901,-0.3100858062929787,-0.4707771462988731,0.05617561525299504,873.5531135531136,843.3333333333334,821.978021978022,857.032967032967,870.7326007326008,-0.018616,0.133606,1.000366,-1.973877,3.416901,3.416901,1,1,1,1,1,81.546875
2017-07-25 13:55:15.040,0.5318418499488955,1.150035175778597,1.121345966480289,1.20593396785585,0.3459939820222336,0.6060556069160249,0.4598925233535237,0.9830477695236871,1.402649128982274,0.4320798711402348,0.464732606158942,0.8056669253643807,1.423764698324588,-0.1494195454646714,-0.1745300657929999,0.4775862359614427,1.197411357081134,-0.4611201316571021,-0.5389421273996785,0.04050768701425567,875.9706959706959,830.4395604395604,828.4249084249085,838.0952380952381,837.2893772893773,-0.023071,0.132690,0.999268,-1.839294,2.542114,5.099182,1,1,1,1,1,81.484375
2017-07-25 13:55:16.045,0.1488949698273515,0.1298640056790934,0.0548498012641563,0.1638297935692642,0.2836515167294609,-0.3310419238578546,-0.2520529617194214,0.3656946195843734,1.334937250629227,-0.07072290673491657,-0.01250947258189352,0.5764274119991887,1.45616856357384,-0.136815070507736,-0.2013723629379018,0.4366910482244316,1.123966969773061,-0.4772626066257488,-0.6786385431228422,-0.09099622242680475,867.1062271062272,836.8864468864469,821.5750915750916,844.1391941391942,877.5824175824176,-0.021301,0.132019,0.998962,-2.287903,3.573914,4.673004,1,1,1,1,1,81.484375
2017-07-25 13:55:16.614,,,,,,,,,,,,,,,,,,,,,,,,,,,,,,,,,,,,,,/muse/elements/blink
2017-07-25 13:55:17.022,-0.3718280870150031,1.127385692247202,0.09521013668503585,0.04470307302349753,0.0575370820331035,0.732874365632283,0.0523855601506402,0.2209249523769481,1.133113765472779,0.5649219653245252,-0.1591127496803132,0.3394906042602383,1.312122424703685,-0.2750296264483323,-0.2022836037576126,0.4291216159199794,0.9720176026211245,-0.4506227267951051,-0.4813539884876423,-0.09300715951705738,848.5714285714286,838.4981684981685,825.6043956043957,855.0183150183151,847.3626373626374,-0.023682,0.130981,0.996277,-2.257996,3.357086,4.336548,1,1,1,1,1,81.484375
2017-07-25 13:55:18.048,0.6851160152612861,1.367225720509757,0.5503996623407621,0.8565256370865995,0.61469177814937,0.8986205910169479,0.06236456594981536,0.2820840318577907,1.450398035098892,0.5325895749738063,0.0440820685201815,0.8230236027241925,1.137141520306601,-0.3972834959271251,-0.337269645280609,0.06948317628361858,0.9125451166649682,-0.3365874798818594,-0.6331639910924136,-0.1598827918739472,925.934065934066,835.6776556776557,824.7985347985348,883.2234432234433,853.8095238095239,-0.051270,0.160217,0.992004,-2.572021,2.564545,10.542297,1,1,1,1,1,81.484375
2017-07-25 13:55:19.027,1.618301311702594,1.178724573007598,0.9961969409050756,0.9787254811542997,0.6050256785564921,0.5413929999670789,0.3509360547076195,0.5890251056885427,1.668573267668572,0.16090241429582,0.2029993425174035,1.028136749242532,1.348698174351058,-0.2047259813754595,-0.4654782095519052,0.4835569022681007,0.8707463083679406,-0.3570612546812065,-0.3851030787749141,0.3520758516115308,855.0183150183151,832.8571428571429,822.3809523809524,837.2893772893773,829.2307692307693,-0.006592,0.154175,1.003479,-2.310333,0.971985,2.601929,1,1,1,1,1,81.484375
2017-07-25 13:55:20.022,1.447576861485181,0.8243652282808375,0.6672958337751255,1.098728452563167,0.5722700119181466,0.2349644906866427,0.203241334002514,0.5462305594539629,1.569573318925175,0.1982942358725892,0.1616611939844835,1.213291396098102,1.424917501929641,-0.0170047916806446,-0.06687898730358016,0.893080878246495,0.8593724614911278,-0.1665820625322725,-0.03850895009301464,0.6329828799835339,852.1978021978023,831.6483516483516,827.6190476190476,857.8388278388279,911.4285714285714,0.001892,0.169250,1.003784,-3.364563,7.760925,7.843170,1,1,1,1,1,81.484375
2017-07-25 13:55:21.038,1.242923987477863,0.7117626927164078,0.5334344885646602,0.8019130211764017,0.8376819905542738,0.1676182222528136,0.04195800272386031,0.4167996048114481,1.637885460258182,0.09570253439898618,-0.07946411872426232,0.8080696771365202,1.23855848102483,-0.1775048004680909,-0.1500312842713206,0.6845190741110517,0.804328604886859,-0.4336600317727303,-0.2402538667252158,0.3253720534740035,871.5384615384615,830.0366300366301,828.021978021978,866.3003663003664,814.7252747252747,-0.031494,0.164124,0.984558,-3.887939,3.820648,4.545898,1,1,1,1,1,81.484375
2017-07-25 13:55:22.043,1.398053421616257,0.8244640582526389,0.7953936035392423,0.7636997287621853,0.6949916090152964,0.3424060335434312,0.2644218044475675,0.5267466185120003,1.374270631788775,0.3743521879402332,0.1172947405124136,0.6489137581947153,1.266279030190231,-0.1672531144079965,-0.2536615720873586,0.4502490298783784,0.9550521786892809,-0.4096577136920834,-0.3199604920945353,0.2099000359275263,877.5824175824176,839.7069597069598,822.7838827838829,853.8095238095239,825.2014652014652,-0.048828,0.148376,0.986389,-3.461761,4.366455,7.387085,1,1,1,1,1,81.484375
2017-07-25 13:55:23.044,0.721257092428138,0.8749916955037337,0.7436035332283236,0.7934311906799207,0.784649164901745,0.4527834152342988,0.2269716288434354,0.9547550542237274,1.512701353428183,0.486967126525898,0.2712776937150403,0.9342562779104713,1.383790342104305,-0.1457189715102499,-0.2655175817892613,0.5599045205655415,0.9979003745996027,-0.2775646063007831,-0.2288119227366845,0.3340035446947363,888.8644688644689,833.2600732600733,829.6336996336996,892.4908424908425,873.1501831501831,-0.003113,0.179260,0.984497,-3.514099,6.385193,12.007751,1,1,1,1,1,81.484375
2017-07-25 13:55:24.028,1.654649458314845,0.6603766248451952,0.3674572570801156,1.01833626022189,0.7301193794553127,0.2465790212835393,0.1165278683117385,0.8466138918440751,1.50423369356898,0.4673346664451036,0.2218014898901178,0.8909302780186977,1.308307163356556,-0.01606927511900458,-0.09320942570994946,0.7078431763219227,0.8307257456596359,-0.1954154497264241,-0.3383797314724731,0.4505275410263299,864.2857142857143,841.7216117216118,827.6190476190476,846.959706959707,801.025641025641,-0.051270,0.156677,0.984741,4.097290,4.957123,0.605621,1,1,1,1,1,81.484375
2017-07-25 13:55:25.023,1.758850556844108,1.429446806631678,1.292535513239306,1.157690785425342,0.7342304905260624,0.8395652259910158,0.7291772057939687,0.6914249511817542,1.096503960898131,0.6367386088719537,0.4350964848106069,1.208120111943717,1.321303129016689,0.06332687087170898,0.005140437899227443,0.692552090189221,0.9112057585175291,-0.1725925885009797,-0.08442299243868651,0.5800426852456516,851.7948717948718,838.0952380952381,824.7985347985348,842.5274725274726,854.6153846153846,-0.041931,0.155823,0.985291,-1.801910,4.119720,4.089813,1,1,1,1,1,81.375000
2017-07-25 13:55:26.052,1.782021419873811,1.441218513021497,1.359620664645937,0.9519126124110457,0.7481169915043876,0.8340596010970852,0.7341922692566522,0.7140571641260134,1.090919239405534,0.5919732248640079,0.4845241428269066,1.224164480284635,1.41062066427435,-0.01493006541824214,-0.08799618280375425,0.6106414129870241,1.014723907207667,-0.3935326727560917,-0.2672876041580403,0.2264471449735199,860.2564102564103,832.4542124542124,818.7545787545788,833.2600732600733,854.2124542124542,-0.039551,0.169556,0.993896,-3.297272,3.304749,4.934692,1,1,1,1,1,81.375000
2017-07-25 13:55:27.028,0.04363878652746268,-0.03861649097883071,0.09895422283826702,0.1223079765728857,0.3287623348122988,-0.09036224074675828,-0.06946845668804329,0.2288821145763425,1.436435989727237,-0.1551090220626744,0.132280084624436,0.6685970184446138,1.135829150747063,-0.09781710741883189,-0.205071162248177,0.4255236209573129,1.263834362872733,-0.4119828709536514,-0.4358385458519959,0.03140663854116983,855.8241758241759,840.1098901098901,826.4102564102565,855.8241758241759,855.8241758241759,-0.040527,0.165771,0.990234,-2.183228,3.252411,5.009460,1,1,1,1,1,81.375000
2017-07-25 13:55:28.045,0.04687103642254394,0.3324941183108347,0.1198489472692591,0.4500788153123314,0.2906182203285422,0.2270285482953681,0.03142981969161313,0.2956776524800141,1.384062509673243,0.2769360600176692,0.1938817632649229,0.5772057835096529,1.167728945724281,-0.1003820849219019,-0.1194617942775664,0.2989387244168413,1.276543361310733,-0.3649576020581057,-0.5653645442201501,-0.1250720607816937,886.0439560439561,845.7509157509157,818.7545787545788,853.4065934065934,839.3040293040293,-0.029846,0.161743,0.989990,-2.489777,3.117828,3.446808,1,1,1,1,1,81.375000
2017-07-25 13:55:29.036,1.065450380203313,1.159585500662011,1.137027536242026,1.393644229863456,0.4714795316083347,0.6341279008194934,0.5941395525575787,1.071273367102982,0.8997910192073775,0.363282878298046,0.2936275569796802,1.098394547948395,1.059220672572518,-0.1664863010521338,-0.1048280324111065,0.6010925291697961,1.011478525634879,-0.4078713308414089,-0.4976177361357003,0.02830794616608446,837.2893772893773,839.7069597069598,819.1575091575091,845.3479853479854,872.7472527472528,-0.026184,0.159729,0.986938,-2.086029,3.259888,4.403839,1,1,1,1,1,81.375000
2017-07-25 13:55:29.888,,,,,,,,,,,,,,,,,,,,,,,,,,,,,,,,,,,,,,/muse/elements/blink
2017-07-25 13:55:30.062,0.929201026897601,0.6001167818570943,0.6946523371984183,0.9634184882978158,0.3016032429391127,0.07050279489174099,0.1868457204432732,0.4235190114077282,1.276280270736611,-0.01241688551980708,0.3227122618342699,0.7149693244300883,1.111612448879309,-0.5096823655846487,-0.3404410426709677,0.3438316526160785,0.9854951598902206,-0.3610429793143295,-0.6646183058536176,-0.07792320713545278,888.4615384615385,845.7509157509157,821.1721611721612,868.7179487179487,826.007326007326,-0.029541,0.160034,0.994019,-2.773895,3.529053,4.284210,1,1,1,1,1,81.375000
2017-07-25 13:55:30.411,,,,,,,,,,,,,,,,,,,,,,,,,,,,,,,,,,,,,,/muse/elements/blink
2017-07-25 13:55:31.026,0.4637300801359773,0.8735317693321776,1.156157835264553,0.4446279572838411,0.1248304421479683,0.5472926105652504,0.9112077491123025,0.01867528232071688,1.276200318971549,0.376133576786454,0.4662827382925028,0.4871031553264045,0.9543188311802659,-0.1851755754900253,-0.1621202919114346,0.2882282316880712,0.8555397226133549,-0.2422801607602531,-0.5544307607484145,-0.1549099151413639,1001.282051282051,788.9377289377289,749.4505494505495,973.4798534798535,840.5128205128206,-0.026306,0.164673,0.993286,-2.071075,3.551483,3.431854,1,1,1,1,1,81.375000
2017-07-25 13:55:31.428,,,,,,,,,,,,,,,,,,,,,,,,,,,,,,,,,,,,,,/muse/elements/blink
2017-07-25 13:55:32.022,0.4637300801359773,1.101239064939999,1.800417618166521,0.4446279572838411,0.1248304421479683,0.7720498716022419,0.9491126899375623,0.01867528232071688,1.276200318971549,0.376133576786454,1.062894063357348,0.4871031553264045,0.9543188311802659,-0.0009973689614949251,0.8463796926665401,0.2882282316880712,0.8555397226133549,-0.1685219955907727,-0.1923148731512181,-0.1549099151413639,877.5824175824176,821.978021978022,824.7985347985348,848.974358974359,844.5421245421246,-0.030151,0.161194,0.994324,-2.108459,3.379517,4.568329,1,1,1,1,1,81.375000
2017-07-25 13:55:32.650,,,,,,,,,,,,,,,,,,,,,,,,,,,,,,,,,,,,,,/muse/elements/blink
2017-07-25 13:55:33.063,0.4637300801359773,1.408179509257715,1.417621479045309,0.4446279572838411,0.1248304421479683,0.9514818887848553,0.8673419240327872,0.01867528232071688,1.276200318971549,0.520724766272197,1.079187101334771,0.4871031553264045,0.9543188311802659,-0.004523916023792761,0.533428319804598,0.2882282316880712,0.8555397226133549,-0.5325146512307112,-0.3283828238336674,-0.1549099151413639,857.4358974358975,829.6336996336996,827.2161172161173,856.2271062271062,839.3040293040293,-0.026306,0.162109,0.997253,-2.257996,3.110352,4.261780,1,2,1,1,2,81.375000
2017-07-25 13:55:33.155,,,,,,,,,,,,,,,,,,,,,,,,,,,,,,,,,,,,,,/muse/elements/blink
2017-07-25 13:55:34.022,0.4637300801359773,1.384754983599965,1.226294080696485,0.4446279572838411,0.1248304421479683,0.7774301011036221,0.7232864475874972,0.01867528232071688,1.276200318971549,0.4913929255644084,0.7508670439390702,0.4871031553264045,0.9543188311802659,-0.2005078844779906,0.1373975317557981,0.2882282316880712,0.8555397226133549,-0.4812845941550484,-0.3616592610055017,-0.1549099151413639,848.1684981684982,818.7545787545788,820.7692307692308,871.941391941392,818.7545787545788,-0.031006,0.158264,0.996460,-2.190704,3.140259,4.015045,1,2,1,1,2,81.375000
2017-07-25 13:55:35.042,1.080477144144663,0.1432885254052667,0.2192777122057862,0.9512349056149617,0.3905496566571787,-0.08583520371453848,-0.4298905595000229,0.5527097521785821,1.441596140508002,0.074534972483091,-0.0008975782830666683,0.8438639474079038,1.143431090847424,-0.1898927358039189,-0.1523917142206792,0.4433295297917008,1.052231363575329,-0.5583437217593387,-0.44284078077552,-0.1184873922160331,869.92673992674,834.4688644688645,813.5164835164835,840.1098901098901,832.8571428571429,-0.030701,0.154541,0.996216,-2.489777,2.983246,4.059906,1,1,1,1,1,81.312500
2017-07-25 13:55:35.176,,,,,,,,,,,,,,,,,,,,,,,,,,,,,,,,,,,,,,/muse/elements/blink
2017-07-25 13:55:36.038,1.064858585172671,0.7934556148849029,0.1195060816158513,1.058570240361781,0.2885479888556096,0.5857425808733351,-0.1246317519312876,0.6669117640366862,1.401201064212684,0.5004606284586832,-0.03772270979698906,0.4818200022522735,1.276132194646376,-0.05314985365163706,-0.105709157449603,0.2728000536602456,1.11371775958435,-0.6505405637790488,-0.509602723999705,-0.1984874922029477,948.4981684981685,829.6336996336996,803.040293040293,924.3223443223443,854.6153846153846,-0.028564,0.152039,0.998901,-1.831818,3.701019,5.233765,1,1,1,1,1,81.312500
2017-07-25 13:55:36.189,,,,,,,,,,,,,,,,,,,,,,,,,,,,,,,,,,,,,,/muse/elements/blink
2017-07-25 13:55:37.043,1.064858585172671,1.102843729701121,1.253361160779868,0.9565218014143479,0.2885479888556096,0.8771042523124938,1.068323986426432,0.7106959993497862,1.401201064212684,0.7125785089690118,1.139036301910238,0.4754956731698377,1.276132194646376,-0.07649334375305254,0.1233423054187195,0.2800081699908321,1.11371775958435,-0.4086697334048588,-0.4932570958521548,-0.1659652395868283,861.0622710622711,853.8095238095239,806.2637362637363,832.0512820512821,863.8827838827839,-0.023315,0.157288,0.989807,-2.026215,3.671112,4.261780,1,1,1,1,1,81.312500
2017-07-25 13:55:38.063,0.9825022375055421,1.107878326569583,1.200972430809346,1.08792960643923,0.4140533000250611,0.5526393850257506,0.8127753689993349,0.978843146064135,1.30678119529085,0.6118535258213964,1.040300697653672,0.9984178153156058,1.107933482655467,-0.1035963493481734,-0.1995029326964636,0.580630052826545,1.143952829975507,-0.5275972463228127,-0.564113443671699,0.2382733636024511,834.4688644688645,836.4835164835165,821.978021978022,837.6923076923077,838.0952380952381,-0.030762,0.152283,0.994080,-2.400055,2.901001,3.439331,1,1,1,1,1,81.312500
2017-07-25 13:55:39.064,0.975925256573752,0.3271989967215199,0.2731401248485419,0.9712554676974005,0.2649061467631026,-0.3368841135941676,0.04659873923902488,0.6206103809113978,1.37708767647407,-0.07311159028509645,-0.1146408239742099,0.9848501107126331,1.148661993690641,-0.2914324955614051,-0.5078199939665835,0.3535888838253748,1.105635638135101,-0.5760471987170533,-0.7663980640982474,0.01734435284376673,810.6959706959707,814.7252747252747,835.2747252747253,829.6336996336996,815.934065934066,-0.023682,0.153381,0.999451,-1.831818,3.484192,4.426270,1,1,1,1,1,81.312500
2017-07-25 13:55:40.022,0.7014352466945262,0.4991429659484236,0.2784025086682522,0.7783353398408227,0.5098915622481784,0.3633926044381403,0.09615513775829342,0.6271354639088105,1.042252936726654,0.3346285034443943,0.08154644213893955,0.551889593979152,1.183114138200546,-0.1661140594522834,-0.2557896773174859,0.1655918103541892,0.9185557274981199,-0.4228255983717593,-0.5127128492790654,-0.2010758948965797,868.3150183150184,829.2307692307693,826.8131868131868,840.9157509157509,820.3663003663004,-0.032837,0.151733,0.992676,-2.422485,3.768311,4.029999,1,1,1,1,1,81.312500
2017-07-25 13:55:40.384,,,,,,,,,,,,,,,,,,,,,,,,,,,,,,,,,,,,,,/muse/elements/blink
2017-07-25 13:55:41.027,0.9103500000830286,1.332741428806211,1.103671668667272,0.960740224162513,0.7648622333451762,0.9627942753670473,0.8367714644795206,0.7971338644593072,0.8711646573383666,0.9451137624197948,0.8455422557340855,0.6692066103503543,1.222700395082606,0.003612529101113609,0.005256585320338693,-0.02467436950906493,0.9286703108139651,-0.2599053904441179,-0.44849494171634,-0.1096846023174754,873.1501831501831,838.901098901099,818.7545787545788,852.1978021978023,863.0769230769231,-0.034790,0.149048,0.996277,-1.943970,3.102875,4.411316,1,1,1,1,1,81.312500
2017-07-25 13:55:42.045,0.9103500000830286,1.165188381160503,0.9536823307916215,1.135706091887762,0.7648622333451762,0.8219454713754458,0.7216484273236151,0.3290891028799842,0.8711646573383666,0.9255225991830913,0.8388580455767958,0.3746862724426323,1.222700395082606,-0.221744615177911,-0.09205967208511714,0.3319170323691644,0.9286703108139651,-0.3461504199231519,-0.581879725306486,-0.01063534139657756,820.7692307692308,839.3040293040293,819.1575091575091,843.3333333333334,864.6886446886447,0.128113,0.211487,0.985779,-6.998291,1.024323,3.566437,1,1,1,1,1,81.312500
2017-07-25 13:55:43.036,0.9103500000830286,0.6824857077673858,0.3155751887795617,1.222463273217629,0.7648622333451762,0.1575197442229248,0.2173349025022637,0.414994609659638,0.8711646573383666,0.3085803388267198,0.1694140240915924,0.7964716783035958,1.222700395082606,-0.08731751940698923,-0.2327019860164214,0.6136446997010161,0.9286703108139651,-0.3586760874351523,-0.507118666670296,0.1823499184983523,877.985347985348,838.4981684981685,817.948717948718,844.1391941391942,832.4542124542124,-0.002747,0.267578,0.987366,7.020721,14.647064,-13.361053,1,1,1,1,1,81.312500
2017-07-25 13:55:44.030,0.9103500000830286,0.8734949273829715,0.8360955916116783,0.8228582171357146,0.7648622333451762,0.358034300533864,0.2746461885794029,0.714352193574628,0.8711646573383666,0.3486111347004037,0.1221229144500008,0.9373976053897434,1.222700395082606,0.02825033358009224,0.03716304541117513,0.6649714135839107,0.9286703108139651,-0.3669072554121577,0.07634147044430625,0.2417476988205188,790.952380952381,844.1391941391942,850.989010989011,821.1721611721612,892.4908424908425,0.024048,0.221741,0.963196,-8.620758,-18.594818,9.712372,1,1,1,1,1,81.312500
2017-07-25 13:55:44.926,,,,,,,,,,,,,,,,,,,,,,,,,,,,,,,,,,,,,,/muse/elements/blink
2017-07-25 13:55:45.042,0.9103500000830286,1.149513026821005,1.56503027151071,1.231365052106124,0.7648622333451762,0.4284665588407721,0.1366300437690042,0.4849279452175746,0.8711646573383666,0.2470414020827917,-0.05578697913984847,1.043092761226001,1.222700395082606,0.01577768775696781,0.2718451299257647,0.5515770343779604,0.9286703108139651,-0.3446162184940798,0.5291147826262802,0.221895606816903,947.6923076923077,861.4652014652015,757.9120879120879,873.5531135531136,905.7875457875458,0.092041,0.185913,0.991028,-4.216919,16.748047,32.105408,1,1,1,1,1,81.203125
2017-07-25 13:55:46.022,0.9103500000830286,1.529617462384111,1.56503027151071,1.190958306108359,0.7648622333451762,0.5435478696571279,0.1366300437690042,0.2094054339056184,0.8711646573383666,0.1697394566435101,-0.05578697913984847,0.8847513787064889,1.222700395082606,-0.3704593829539863,0.2718451299257647,0.2953051489214765,0.9286703108139651,-0.6947028436959348,0.5291147826262802,0.01485171178041985,782.4908424908425,826.007326007326,822.3809523809524,761.5384615384615,804.2490842490843,0.105164,0.203857,0.994141,-0.291595,5.742188,4.366455,1,1,1,1,1,81.203125
2017-07-25 13:55:46.255,,,,,,,,,,,,,,,,,,,,,,,,,,,,,,,,,,,,,,/muse/elements/blink
2017-07-25 13:55:47.026,1.682799488833508,0.9520590736023899,0.8636305063695242,1.387371946715283,1.445947672394579,-0.000128818463115811,-0.4886049660223952,1.262343400148379,1.565342802937692,-0.09227831946880975,0.2902857915772555,1.30078032882179,1.015836365804482,-0.4759231192255926,0.386986054930413,0.6421522695688737,0.1501407809238,-0.9751443229675364,0.06802898777894366,-0.1514483216435337,836.0805860805862,841.7216117216118,817.5457875457876,847.3626373626374,845.3479853479854,0.064758,0.211426,0.982300,-2.362671,0.904694,-25.996857,1,1,1,1,1,81.203125
2017-07-25 13:55:47.966,,,,,,,,,,,,,,,,,,,,,,,,,,,,,,,,,,,,,,/muse/elements/blink
2017-07-25 13:55:48.042,1.611870104102173,0.6917929608632908,0.4503220785515989,1.250036110671707,1.534562048140629,0.08222438295944844,0.1573363279544354,1.134772948194895,1.561221675407027,0.2866126494664437,0.6223568798650084,1.283874720721161,1.004681155653402,-0.1864079212902326,0.3418271298265098,0.696188922563995,0.09667791955220104,-0.5161493183081661,0.2369776872200456,0.3166403228611157,881.6117216117217,838.4981684981685,817.5457875457876,879.5970695970697,857.032967032967,0.059692,0.244324,0.987976,-1.592560,4.702911,7.259979,1,1,1,1,1,81.203125
2017-07-25 13:55:48.773,,,,,,,,,,,,,,,,,,,,,,,,,,,,,,,,,,,,,,/muse/elements/blink
2017-07-25 13:55:49.029,1.611870104102173,0.4061467709588016,1.027481186372729,0.9086881954488046,1.534562048140629,0.2746799932011985,0.8075000165563821,0.7534526899706468,1.561221675407027,0.2704570797975884,0.8615118317955122,0.7808278334635324,1.004681155653402,-0.2222783628367822,0.05970275035949869,0.7494543775763453,0.09667791955220104,-0.5821086405679596,-0.3034136866522847,0.4728979547621877,862.6739926739926,832.8571428571429,828.021978021978,834.4688644688645,860.6593406593407,0.070129,0.224792,0.973999,-6.392670,-1.585083,21.032257,1,1,1,1,1,81.203125
2017-07-25 13:55:49.182,,,,,,,,,,,,,,,,,,,,,,,,,,,,,,,,,,,,,,/muse/elements/blink
2017-07-25 13:55:50.028,1.611870104102173,0.3013010322081439,0.8302670110937898,0.9086881954488046,1.534562048140629,0.4625591357383551,0.8245549715503958,0.7534526899706468,1.561221675407027,0.3007178830334997,0.9472624048682111,0.7808278334635324,1.004681155653402,-0.3470678830774158,0.3287352239925093,0.7494543775763453,0.09667791955220104,-0.6002921654845081,-0.06676083420401877,0.4728979547621877,1043.992673992674,838.4981684981685,793.3699633699634,1012.564102564103,842.9304029304029,0.214661,0.279053,0.933655,1.323395,1.757050,13.495636,1,1,1,1,1,81.203125
2017-07-25 13:55:50.116,,,,,,,,,,,,,,,,,,,,,,,,,,,,,,,,,,,,,,/muse/elements/blink
2017-07-25 13:55:50.623,,,,,,,,,,,,,,,,,,,,,,,,,,,,,,,,,,,,,,/muse/elements/blink
2017-07-25 13:55:51.042,1.611870104102173,0.6098582799451626,1.058604462888206,0.9086881954488046,1.534562048140629,0.4780241896368588,1.08957791478078,0.7534526899706468,1.561221675407027,0.3122795837808304,1.009007046263724,0.7808278334635324,1.004681155653402,-0.2001767215739029,0.05742830488874323,0.7494543775763453,0.09667791955220104,-0.4188332174665829,-0.3216058459392234,0.4728979547621877,873.1501831501831,832.8571428571429,825.2014652014652,856.6300366300367,866.3003663003664,0.051758,0.124512,0.993164,-5.794525,10.983429,11.125488,1,2,1,1,2,81.203125
2017-07-25 13:55:52.040,1.611870104102173,0.5801080470050985,1.019709339949575,0.9086881954488046,1.534562048140629,0.3240270298296669,0.9855776124929265,0.7534526899706468,1.561221675407027,0.1682559981631334,0.9886966371099093,0.7808278334635324,1.004681155653402,-0.2383727300081795,-0.09767789923650608,0.7494543775763453,0.09667791955220104,-0.4394841185548188,-0.5506058371940867,0.4728979547621877,895.7142857142858,855.0183150183151,799.0109890109891,852.1978021978023,871.5384615384615,0.020386,0.111145,1.024841,-1.757050,1.472931,-3.110352,1,2,1,1,2,81.203125
2017-07-25 13:55:52.857,,,,,,,,,,,,,,,,,,,,,,,,,,,,,,,,,,,,,,/muse/elements/blink
2017-07-25 13:55:53.028,1.002104629164144,0.621433281537779,0.7677394876892558,0.8351705754496923,0.643147710895528,0.2237189425531668,0.3801488235745401,0.6984543455074587,0.7852567146203986,0.2168374344066681,0.1198539206142367,0.8717580422639404,0.555147470450106,-0.398191130854817,-0.2939596121279323,0.5484384298399121,0.1423519041067679,-0.5295010045561189,-0.5095414158509276,-0.06266924447248597,863.4798534798535,842.5274725274726,821.1721611721612,845.7509157509157,865.4945054945056,0.021301,0.100281,1.009338,-1.600037,3.656158,4.837494,1,1,1,1,1,81.203125
2017-07-25 13:55:54.041,1.386872853972969,0.9506118169464156,0.9342562221116699,1.177265512922913,0.8744614036370817,0.6105152092659603,0.4791733528365215,1.005464276573755,0.8391381574004569,0.3081804217223059,0.2631930838935836,1.065885464840157,0.5831214546894125,-0.3920394896513792,-0.3029834983872092,0.488742215404296,0.3228044370459788,-0.6028974417962479,-0.5593582547289433,0.08014264827105358,861.8681318681319,844.5421245421246,822.3809523809524,835.2747252747253,819.1575091575091,-0.040283,0.106262,0.984436,0.777588,3.730927,-6.624451,1,1,1,1,1,81.203125
2017-07-25 13:55:55.042,1.222531198507727,0.7951666507133214,0.7286498480066825,0.8205326151936326,0.5780510161166913,0.1980576734788524,0.1240211160257996,0.4886430213962359,0.8938615081664831,0.1506924091682311,0.445745820403489,0.8957237166672801,0.4866797800110611,-0.2303265421152624,-0.02794752922348185,0.516054765926127,0.2275400507391725,-0.6363622139150206,-0.2453225845846072,0.1714123575335432,856.6300366300367,838.0952380952381,834.0659340659341,842.5274725274726,838.901098901099,0.104248,0.218018,0.971741,10.310516,15.297546,-2.751465,1,1,1,1,1,81.140625
2017-07-25 13:55:55.903,,,,,,,,,,,,,,,,,,,,,,,,,,,,,,,,,,,,,,/muse/elements/blink
2017-07-25 13:55:56.025,0.9064354086502696,0.8522359858331544,0.6351844083672841,0.9736689001913119,0.2290829844281156,0.4926941296383504,0.1471979831489294,0.6377609171789572,0.704946582301613,0.3691453801797308,0.4595170119466875,0.9116856083919079,0.5171243239533266,0.02984585874993714,0.1616127353670206,0.6484767317298861,0.1166359195006323,-0.4197997598482249,-0.03661226780088445,0.2444914896142605,861.4652014652015,834.4688644688645,810.2930402930403,830.0366300366301,830.4395604395604,0.107910,0.268005,0.972107,3.162689,-2.257996,-0.097198,1,1,1,1,1,81.140625
2017-07-25 13:55:56.684,,,,,,,,,,,,,,,,,,,,,,,,,,,,,,,,,,,,,,/muse/elements/blink
2017-07-25 13:55:57.050,0.9064354086502696,1.421052606418611,0.6500678392411682,0.6161500600761869,0.2290829844281156,1.100921719270074,0.09097926149751843,0.3917178114170909,0.704946582301613,0.5311459939190004,0.3002618269842952,0.653690615167143,0.5171243239533266,0.2479157039836756,-0.06275695899696501,0.5562718672876297,0.1166359195006323,-0.2301057156030145,-0.3043682354527868,0.2315804489820773,866.7032967032967,835.6776556776557,823.992673992674,831.6483516483516,915.4578754578755,0.116028,0.286804,0.967041,3.185120,-6.572113,-2.901001,1,1,1,1,1,81.140625
2017-07-25 13:55:58.037,0.9064354086502696,0.5251812162878148,0.9219817520435446,0.6161500600761869,0.2290829844281156,0.06495400295918777,0.8388931166380933,0.3917178114170909,0.704946582301613,-0.009244758879574655,0.691502188891939,0.653690615167143,0.5171243239533266,-0.06743085449486731,0.3123906999583376,0.5562718672876297,0.1166359195006323,-0.5163760022406227,0.03483444861876449,0.2315804489820773,859.8534798534798,844.1391941391942,819.5604395604396,848.1684981684982,840.5128205128206,0.085632,0.213318,0.977417,-3.820648,5.301056,7.117920,1,1,1,1,1,81.140625
2017-07-25 13:55:59.049,0.301413091308222,0.01635377582346738,0.03955107383738261,0.3365599824330899,0.4070718074760215,-0.3138525919758463,-0.7118328675453554,0.3622948999466085,1.460986498419871,-0.1939946510764547,0.03535165874489778,0.8034895269461956,1.132602972335644,-0.3190381560685286,0.04307205854003121,0.5821558218637005,0.6246999764008079,-0.7430589304125276,-0.2360905158774639,0.343281697662087,843.7362637362637,843.3333333333334,818.3516483516484,838.4981684981685,841.3186813186813,0.076660,0.251587,0.966858,2.033691,-4.082336,7.895508,1,1,1,1,1,81.140625
2017-07-25 13:56:00.035,0.5519756824056502,-0.01280863529149491,-0.04143166690537537,0.7919168549660235,0.5658757135827456,-0.2185196998560732,-0.3540824775236427,0.5026364950854245,1.46318856499564,-0.04953751304222103,-0.07495912700406357,0.8402667659695776,1.200202500335281,-0.2206488592534537,-0.2284349682683621,0.9944443000357658,0.7106738867037489,-0.5524702313720656,-0.6202092015057524,0.7813187594755661,877.985347985348,839.3040293040293,817.5457875457876,874.3589743589744,836.8864468864469,0.098083,0.263916,0.967651,-2.788849,5.151520,3.618774,1,1,1,1,1,81.140625
2017-07-25 13:56:01.021,0.724293670755252,-0.1176723251467336,-0.1653988669700953,0.7927563101509562,0.2601272044567473,-0.437832158755173,-0.3158630341916757,0.4695777138400705,1.401759809913938,-0.2600014446319827,-0.07734924910816038,0.8804454200055183,1.098398550252988,-0.287620502207052,-0.2054889383523287,0.8441763084360977,0.7994957174944112,-0.4406185418608874,-0.4887354352422739,0.7845838892698463,871.5384615384615,832.0512820512821,830.0366300366301,833.2600732600733,814.3223443223443,0.073669,0.260620,0.974121,-2.011261,2.983246,6.684265,1,1,1,1,1,81.140625
2017-07-25 13:56:02.030,0.5479296780615529,0.1967354082137577,-0.1368850117688034,0.7575929943886771,0.3955872323004492,-0.2964033799430575,-0.469382498566995,0.3592348003856022,1.477278478031925,0.01939952960827475,-0.0905347885661168,0.9088938715931796,1.053741107192165,-0.2267877854115852,-0.137893389939917,0.5658105978099023,0.5608580879044904,-0.545747998693089,-0.4002880941478096,0.5419104985572143,865.4945054945056,842.1245421245421,826.007326007326,843.3333333333334,888.0586080586081,0.085632,0.244019,0.977783,-4.321594,3.790741,6.078644,1,1,1,1,1,81.140625
2017-07-25 13:56:03.063,0.6256272308138301,0.4006709550009991,-0.1664330701517688,1.012741950215278,0.4333011291697011,-0.3054362660786811,-0.4469313551402325,0.4200051496927588,1.593571483578324,0.08455421310005995,-0.05963221611099482,0.9110323677228203,1.055604480242843,-0.2085876790556314,-0.0647554417585406,0.5860270626052879,0.6549164765101186,-0.475840020457517,-0.2957721201898009,0.5719699235073639,859.047619047619,836.4835164835165,826.4102564102565,844.9450549450549,812.7106227106227,0.084473,0.225769,0.974976,-2.811279,3.573914,2.863617,1,1,1,1,1,81.140625
2017-07-25 13:56:03.924,,,,,,,,,,,,,,,,,,,,,,,,,,,,,,,,,,,,,,/muse/elements/blink
2017-07-25 13:56:04.040,0.3164999032013702,0.05824713239789685,-0.4294822962795351,0.1555483788512721,0.5635404072566716,-0.5024238201438869,-0.5315638300458904,0.3287445100264594,1.509031714158009,0.01759493253959749,-0.1573759956659199,0.4041457335170748,1.049047172208517,-0.4142596594803384,-0.3884190567856737,0.365597165076933,0.5945763547922548,-0.7514831925396132,-0.6184572787131284,0.09713456824133174,862.2710622710623,838.4981684981685,815.934065934066,838.901098901099,920.2930402930403,0.086243,0.223267,0.977295,-1.742096,3.185120,4.329071,1,1,1,1,1,81.140625
2017-07-25 13:56:05.022,0.5866223155325203,-0.0972151765625088,-0.009368189921282863,0.2190306817607346,0.7377280871280943,-0.1746051631025539,-0.3837320464730873,0.2474304694268061,1.244931217932523,0.004831988737872312,-0.2279793176158441,0.4169683437021495,0.9388978352861598,-0.3594202731040183,-0.2300738027040853,0.1626084152737896,0.4577492612468626,-0.7993287090296675,-0.3932464752110608,-0.4665151889042182,866.3003663003664,839.7069597069598,825.6043956043957,849.3772893772895,832.8571428571429,0.079468,0.228455,0.981934,-1.712189,3.461761,3.940277,1,1,1,1,1,81.031250
2017-07-25 13:56:06.034,0.4899598218615089,-0.6708944300029814,-0.04076444806842389,0.4848230415595296,0.5284402524378289,-0.7261625488453407,-0.3365124380727479,0.5182246162167502,1.135461977934119,-0.3797993070151722,-0.4432052348711201,0.8592190289295373,0.7249017868501448,-0.429395508008539,-0.3284746679477404,0.2362358613052954,0.3872957582715651,-0.6927322408096415,-0.5716544020472721,-0.2049466588703346,873.956043956044,843.7362637362637,820.7692307692308,845.3479853479854,857.4358974358975,0.084900,0.228088,0.982727,-2.041168,3.177643,4.284210,1,1,1,1,1,81.031250
2017-07-25 13:56:07.026,0.7451742785212015,0.04513187929084108,0.1431644035429976,0.7958736542078317,0.6451237522843488,-0.08435948703971538,-0.0264058554130937,0.7365509973163147,0.8992921578440513,0.06945697059375404,0.1702229862996534,0.8786467515081848,0.9155053672642838,-0.2551839440270837,-0.3473098086753661,0.4232881914156967,0.6057018662584814,-0.702538616432297,-0.6353396864809679,-0.0360374208438449,867.5091575091575,839.3040293040293,820.3663003663004,842.1245421245421,860.6593406593407,0.076904,0.223022,0.979492,-1.958923,3.364563,4.104767,1,1,1,1,1,81.031250
2017-07-25 13:56:08.037,0.07617901359755821,0.1531674894448255,0.0184503880219689,0.1802215251983196,0.4029972317433228,-0.1128420251800402,-0.09342614671011461,0.2660836606169228,0.9837625820497568,0.08978286453793527,0.1771807973818522,0.5229382409482003,0.9549359049188455,-0.2340932876084403,-0.2936515188970663,0.3445032282236081,0.5758970290107523,-0.7530012040536985,-0.7409789078101183,-0.09402739853714814,855.4212454212454,837.2893772893773,833.6630036630037,859.4505494505495,823.5897435897436,0.080872,0.225464,0.976929,-2.093506,3.925323,5.981445,1,1,1,1,1,81.031250
2017-07-25 13:56:08.382,,,,,,,,,,,,,,,,,,,,,,,,,,,,,,,,,,,,,,/muse/elements/blink
2017-07-25 13:56:09.056,0.06718763899275712,1.477369979104485,0.07513274995832508,-0.1877449858742126,0.3144601987301038,0.8041307833636113,-0.2645693292641049,-0.02779581490408698,0.8458784710202207,-0.2756622137675254,-0.2468585570675782,0.4370106355669707,0.7756243755104344,-0.178483053748256,-0.4257812942254435,0.03568693518830015,0.5663030628850814,-0.550745663892003,-0.9051833344685557,-0.5291330936706996,868.7179487179487,836.8864468864469,817.948717948718,839.7069597069598,855.8241758241759,0.049622,0.219788,0.980896,-4.441223,5.316010,6.235657,1,1,1,1,1,81.031250
2017-07-25 13:56:10.037,1.011143162290862,1.48996216113426,0.8727360477019195,0.6323363125979327,0.3302110779655084,0.7997885431254769,0.4231722306890624,0.8108147911296349,1.151444839792953,-0.1729990470490476,0.1059901030864921,0.9704158211375979,1.026210641392931,-0.2321460035931586,-0.15597374002432,0.4738977545343466,0.2709212521205993,-0.4363768772753516,-0.5328164550523357,0.2137008101525462,866.3003663003664,834.0659340659341,830.4395604395604,851.3919413919414,865.8974358974359,0.014526,0.201111,0.988708,0.119629,-1.689758,4.897308,1,1,1,1,1,81.031250
2017-07-25 13:56:11.033,1.301420973690516,0.8515281730681131,1.068657329924519,0.7557970939249773,0.9650146833623853,0.4343905330879522,0.5591541495918524,0.8662331701386805,1.27493275273257,0.09526595176395548,0.2855194701053921,0.9638400212077858,1.047297447242741,-0.1553589939825962,-0.1677015050681059,0.4069309008345524,0.2943130693932676,-0.5002473855545694,-0.5651090167744645,0.1404879579862595,868.3150183150184,839.3040293040293,821.1721611721612,848.5714285714286,915.4578754578755,0.049927,0.233337,0.983459,-3.544006,-0.867310,0.493469,1,1,1,1,1,81.031250
2017-07-25 13:56:12.040,1.467477317778977,0.8961142210054014,1.200687389829775,0.9064346112728857,1.101608547364549,0.4333958178618868,0.6684518360236983,0.7503616319786377,1.231102430746596,0.1365049086189806,0.2415863308692633,0.7011951256573082,0.9327591309765347,-0.254347417194781,-0.1828556903296197,0.4681669303630632,0.3307806884776911,-0.5430448386820412,-0.4646803040629079,0.2268781250373621,819.5604395604396,827.2161172161173,837.2893772893773,825.6043956043957,850.1831501831502,0.048523,0.225281,0.984314,-3.499146,4.912262,12.112427,1,1,1,1,1,81.031250
2017-07-25 13:56:12.160,,,,,,,,,,,,,,,,,,,,,,,,,,,,,,,,,,,,,,/muse/elements/blink
2017-07-25 13:56:13.023,1.14456477239203,0.6475035634156873,0.8168334062172143,1.186356773372977,0.6514752711714255,0.4151831620496918,0.2766642891962871,1.043984633404236,1.139337148961016,0.1217385397802833,0.3642324055324452,1.12678218638392,1.037378158277162,-0.2026373196606114,-0.08916387212052614,0.3435483479125437,0.4725855881474215,-0.6937133564862419,-0.5188738444992012,-0.2287300771683898,876.3736263736264,842.9304029304029,828.8278388278388,858.6446886446887,852.6007326007326,0.044250,0.220154,0.985779,-3.491669,4.344025,4.673004,1,1,1,1,1,81.031250
2017-07-25 13:56:13.385,,,,,,,,,,,,,,,,,,,,,,,,,,,,,,,,,,,,,,/muse/elements/blink
2017-07-25 13:56:14.022,0.8508786670460051,1.323329225688925,1.122875045913089,1.492090601513296,0.7295340051982335,0.7657901868933826,0.6873062494292523,1.374739341882302,1.227457885718818,0.4775258422860941,0.5637589053360375,1.436239964706645,1.093415338976407,-0.04581988035665503,0.1576971134773308,0.7977866800037819,0.6107323784778347,-0.3768058013373917,-0.298128433660734,0.1531758940389513,861.4652014652015,837.2893772893773,825.6043956043957,844.5421245421246,801.8315018315019,0.052734,0.230103,0.979492,-2.108459,2.766418,1.585083,1,1,1,1,1,81.031250
2017-07-25 13:56:15.042,1.314582001847803,1.389509313336152,0.9125680321598384,0.5823532423773455,1.147100374904043,0.8759380693470654,0.5416123205499824,0.8503109836184313,1.475079148285251,0.4892054628863827,0.3779436062190704,0.8977340861266764,0.8599476951221959,-0.2897305650098348,-0.02139320420769181,0.1854551757933507,0.4131719260875825,-0.5056494007621256,0.07762585658544803,-0.1434463453463831,892.4908424908425,844.9450549450549,817.5457875457876,856.2271062271062,871.941391941392,0.056519,0.229431,0.978638,-2.220612,2.362671,2.721558,1,1,1,1,1,80.968750
2017-07-25 13:56:16.152,1.241059399860747,1.039413342600706,1.088100143526104,0.7837243512384503,0.9932980139606152,0.5917108708717033,0.61686277833104,0.8599637845397758,1.467967886179308,0.3725843979962332,0.4088781499903551,0.965028586395088,0.8608571315397782,-0.308008661548756,-0.1051013985171398,0.5377137748354394,0.3829247707711981,-0.4071664999270703,0.02019514416982393,0.1774901024556415,871.5384615384615,846.1538461538462,825.6043956043957,855.8241758241759,863.0769230769231,0.040283,0.229797,0.973816,-3.065491,3.222504,7.693634,1,1,1,1,1,80.968750
2017-07-25 13:56:17.147,1.520015069353639,1.078007661543963,1.089402985597509,1.183993352488116,1.200515302160976,0.5008922690000394,0.6462031731782375,1.054946067076461,1.086874423334708,-0.06824993848233196,0.4107892131457769,0.702893773391735,0.7380872343019462,-0.3060105394411154,-0.2255632023629215,0.5654192668890284,0.1726203099365573,-0.4981743850833677,-0.3335896694363482,0.03667618303523523,855.0183150183151,838.4981684981685,828.4249084249085,839.3040293040293,882.014652014652,0.048035,0.224487,0.984863,-3.566437,2.729034,3.058014,1,1,1,1,1,80.968750
2017-07-25 13:56:18.160,1.578185733702292,0.8578793708217066,0.9378097992886346,1.299290748884305,0.7993801015024996,0.5951876018729025,0.6296194055586372,0.9454683763163293,1.055208246377105,0.5143780552979319,0.56958262772968,0.9474275719912297,0.6766854612740715,-0.1691024802975276,-0.06790456980478153,0.6588251952941943,0.2772211106446572,-0.4509704014221657,-0.3289595315585984,0.1326608060483032,859.047619047619,843.7362637362637,824.3956043956044,842.9304029304029,812.7106227106227,0.055481,0.223633,0.978760,-2.048645,2.938385,4.830017,1,1,1,1,1,80.968750
2017-07-25 13:56:19.142,0.9405328478166567,0.8083739582325361,0.8392300719273079,1.042856529170306,0.8202979423898984,0.5817122085641609,0.5790716899826618,1.039974575802759,1.14258249860459,0.5351143582396471,0.5094699621215362,1.131071646002869,0.6648069631643959,-0.20453009207169,-0.2317868166472974,0.5276674520147313,0.2167298241498683,-0.3377662558926549,-0.3489124894193606,-0.04627207405490091,886.8498168498169,841.7216117216118,822.7838827838829,838.0952380952381,872.3443223443223,0.053589,0.220215,0.979370,-2.684174,3.170166,4.224396,1,1,1,1,1,80.968750
2017-07-25 13:56:20.150,0.8311147781063102,0.7957847561405395,0.8746271414587488,0.7507419132327203,0.787145941055023,0.4055694725338569,0.3562269600118416,0.4042104206907118,1.111296750534979,0.4492786377313502,0.1534250231776524,0.5773342115375781,0.8098195902348349,-0.1499372255985868,-0.2909250488712961,0.4949745274820158,0.3027567028833902,-0.2441305592509918,-0.5682771049792235,0.03989790035961289,869.92673992674,838.901098901099,824.7985347985348,846.959706959707,862.6739926739926,0.056946,0.223328,0.975220,-1.614990,2.519684,3.775787,1,1,1,1,1,80.968750
2017-07-25 13:56:21.139,0.8375631331961166,0.9275338233897118,0.9779238389388675,1.319627180376282,0.9211128935286119,0.441295087123157,0.3695798059030607,0.9665835991505261,1.199521502341519,0.36697739859781,0.1224200818086336,1.020439717629992,0.8498460208011009,-0.2974609143882631,-0.375956931893917,0.4455359083336987,0.3634853555367624,-0.3439901382080995,-0.7203605047006215,-0.003895037508410415,864.2857142857143,842.1245421245421,824.3956043956044,849.3772893772895,829.2307692307693,0.056091,0.218750,0.984192,-2.624359,3.155212,4.037476,1,1,1,1,1,80.968750
2017-07-25 13:56:22.136,0.7975187098873557,0.9048233450024167,0.9303034045634678,1.238080458540544,0.7295114879603677,0.2635452737545413,0.2683896977660346,0.9075301404322501,1.09162021142883,0.2084881801063508,0.174413459123201,1.025463034181997,0.8194941123763725,-0.2338946556394983,-0.3019194588848316,0.3519337005784468,0.2737160344000936,-0.3130180716181336,-0.5375581511452551,0.02474309364333526,865.0915750915751,847.3626373626374,826.8131868131868,847.7655677655678,888.8644688644689,0.056763,0.221008,0.982849,-2.115936,3.618774,4.299164,1,1,1,1,1,80.968750
2017-07-25 13:56:22.611,,,,,,,,,,,,,,,,,,,,,,,,,,,,,,,,,,,,,,/muse/elements/blink
2017-07-25 13:56:23.132,0.2597040812401696,1.125033860249464,1.140719526990212,1.123343161781576,0.3418925283737533,0.3432584665601167,0.6140440874318183,1.08951367976942,0.7474246217665629,0.1097341140957659,0.2167004144382998,1.294464463323199,0.6407681047912693,-0.0633652001684166,-0.1058945434011314,0.4114462330234318,0.1665851757986505,-0.3590189281913242,-0.5407306114023269,-0.1703757433093974,877.5824175824176,848.1684981684982,818.7545787545788,853.4065934065934,851.3919413919414,0.060913,0.217529,0.981140,-3.229980,3.431854,2.654266,1,1,1,1,1,80.968750
2017-07-25 13:56:24.167,1.0900289168735,1.35910657145763,1.426347815030889,1.53830499728444,0.9677735715190076,0.6576969518678214,0.8813939846906171,1.434094394145513,1.19168986234759,0.04353914556983282,0.236447335374019,1.309777769460289,0.8935632547336461,-0.3002282642481807,-0.2999996841868408,0.6874719807215472,0.3425771845944474,-0.3456004338927928,-0.5022044557294879,0.03218869665180793,870.3296703296703,844.5421245421246,824.7985347985348,840.9157509157509,883.2234432234433,0.058350,0.213684,0.986267,-2.429962,3.372040,3.372040,1,1,1,1,1,80.968750
